Title: The Final Season Reimagined: 30 Tidal Disruption Events from the 
       ZTF-I Survey 
Authors: Hammerstein E., van Velzen S., Gezari S., Cenko S.B., Yao Y., Ward C.,
    Frederick S., Villanueva N., Somalwar J.J., Graham M.J., Kulkarni S.R., 
    Stern D., Andreoni I., Bellm E.C., Dekany R., Dhawan S., Drake A.J., 
    Fremling C., Gatkine P., Groom S.L., Ho A.Y.Q., Kasliwal M.M., 
    Karambelkar V., Kool E.C., Masci F.J., Medford M.S., Perley D.A., 
    Purdum J., van Roestel J., Sharma Y., Sollerman J., Taggart K., Yan L.
Table: Data behind Figures 14-16 -- LT spectrum of ZTF19aarioci on 20190510
================================================================================
Byte-by-byte Description of file: ZTF19aarioci_20190510_LT_v1.mrt
--------------------------------------------------------------------------------
   Bytes Format Units       Label  Explanations
--------------------------------------------------------------------------------
   1-  7 F7.2   0.1nm       wave   Wavelength, Angstroms
   9- 17 F9.6   ---         flux   Flux density, normalized
--------------------------------------------------------------------------------
4029.20  2.294228 
4038.40  2.518564 
4047.60  2.758262 
4056.80  0.298564 
4066.00  1.277606 
4075.20  3.287352 
4084.40  1.771842 
4093.60  1.061339 
4102.80  1.762399 
4112.00  1.618356 
4121.20  1.557896 
4130.40  1.610723 
4139.60  1.455616 
4148.80  1.138958 
4158.00  1.375975 
4167.20  1.801350 
4176.40  1.978558 
4185.60  1.384387 
4194.80  1.696580 
4204.00  1.678564 
4213.20  1.454536 
4222.40  1.352668 
4231.60  1.594032 
4240.80  0.408714 
4250.00  1.357117 
4259.20  1.563225 
4268.40  0.932509 
4277.60  1.953488 
4286.80  2.011521 
4296.00  1.888379 
4305.20  2.193782 
4314.40  0.747129 
4323.60  1.798049 
4332.80  1.862412 
4342.00  2.442282 
4351.20  2.264176 
4360.40  1.236194 
4369.60  1.238846 
4378.80  0.913322 
4388.00  1.225911 
4397.20  1.181805 
4406.40  1.141071 
4415.60  1.387412 
4424.80  1.354661 
4434.00  1.082862 
4443.20  1.277441 
4452.40  1.336922 
4461.60  1.240603 
4470.80  2.351480 
4480.00  1.356009 
4489.20  1.343837 
4498.40  1.763914 
4507.60  1.314685 
4516.80  2.084783 
4526.00  1.573094 
4535.20  1.238336 
4544.40  1.463963 
4553.60  1.572368 
4562.80  1.744672 
4572.00  1.673935 
4581.20  1.216901 
4590.40  1.349958 
4599.60  1.233053 
4608.80  1.415565 
4618.00  1.465053 
4627.20  1.599149 
4636.40  1.163980 
4645.60  1.758282 
4654.80  1.218728 
4664.00  0.933419 
4673.20  1.393671 
4682.40  1.041876 
4691.60  1.241325 
4700.80  1.397360 
4710.00  1.423223 
4719.20  1.613213 
4728.40  1.188753 
4737.60  1.269194 
4746.80  1.436446 
4756.00  1.395809 
4765.20  1.198068 
4774.40  1.104016 
4783.60  1.369645 
4792.80  1.420055 
4802.00  1.193942 
4811.20  1.432205 
4820.40  1.176204 
4829.60  1.393879 
4838.80  1.546145 
4848.00  1.398605 
4857.20  1.098054 
4866.40  1.342365 
4875.60  1.300132 
4884.80  1.661718 
4894.00  1.175276 
4903.20  1.304407 
4912.40  1.144795 
4921.60  1.231445 
4930.80  1.071886 
4940.00  1.015339 
4949.20  1.118767 
4958.40  1.440660 
4967.60  1.221408 
4976.80  1.140397 
4986.00  1.141561 
4995.20  1.018482 
5004.40  1.047461 
5013.60  1.283353 
5022.80  0.956235 
5032.00  1.319650 
5041.20  1.535081 
5050.40  1.325661 
5059.60  1.085454 
5068.80  1.081139 
5078.00  0.995358 
5087.20  1.183707 
5096.40  1.494059 
5105.60  1.193236 
5114.80  0.867707 
5124.00  1.299317 
5133.20  1.040052 
5142.40  1.133177 
5151.60  1.163246 
5160.80  0.847086 
5170.00  1.184305 
5179.20  1.336389 
5188.40  0.844095 
5197.60  1.051073 
5206.80  0.923672 
5216.00  0.803884 
5225.20  1.183700 
5234.40  1.086695 
5243.60  1.170113 
5252.80  1.379695 
5262.00  0.988008 
5271.20  1.149992 
5280.40  1.184013 
5289.60  1.050842 
5298.80  0.852987 
5308.00  0.898426 
5317.20  1.131194 
5326.40  1.091618 
5335.60  1.109398 
5344.80  0.954618 
5354.00  1.227847 
5363.20  0.920768 
5372.40  1.158687 
5381.60  1.037278 
5390.80  1.143505 
5400.00  0.932837 
5409.20  1.007753 
5418.40  1.151464 
5427.60  0.737870 
5436.80  1.112751 
5446.00  0.671304 
5455.20  1.013578 
5464.40  1.533769 
5473.60  0.731403 
5482.80  0.940075 
5492.00  1.147482 
5501.20  1.290684 
5510.40  0.794359 
5519.60  0.871831 
5528.80  1.159271 
5538.00  0.943631 
5547.20  0.876381 
5556.40  0.919990 
5565.60  0.811007 
5574.80  1.040799 
5584.00  0.858484 
5593.20  1.054419 
5602.40  0.703250 
5611.60  0.990448 
5620.80  0.706720 
5630.00  1.180630 
5639.20  0.989037 
5648.40  1.114608 
5657.60  0.800652 
5666.80  1.060709 
5676.00  0.802100 
5685.20  0.805833 
5694.40  0.984477 
5703.60  1.061316 
5712.80  1.134536 
5722.00  0.891278 
5731.20  0.984454 
5740.40  0.638339 
5749.60  0.939200 
5758.80  0.786026 
5768.00  0.771704 
5777.20  0.940778 
5786.40  0.735138 
5795.60  1.033115 
5804.80  0.690414 
5814.00  0.831194 
5823.20  1.122307 
5832.40  1.067955 
5841.60  0.601604 
5850.80  1.013163 
5860.00  0.999055 
5869.20  0.816696 
5878.40  0.696953 
5887.60  1.032773 
5896.80  1.007518 
5906.00  0.974855 
5915.20  0.729657 
5924.40  0.851288 
5933.60  1.080579 
5942.80  1.211401 
5952.00  0.989929 
5961.20  0.897920 
5970.40  0.636211 
5979.60  0.340530 
5988.80  1.065241 
5998.00  0.955005 
6007.20  0.866379 
6016.40  0.759899 
6025.60  1.045506 
6034.80  0.889851 
6044.00  0.879804 
6053.20  1.128155 
6062.40  0.613288 
6071.60  0.806924 
6080.80  0.810654 
6090.00  0.749298 
6099.20  0.727347 
6108.40  0.710661 
6117.60  0.651156 
6126.80  0.904638 
6136.00  0.913417 
6145.20  1.103099 
6154.40  0.701798 
6163.60  0.989154 
6172.80  1.105077 
6182.00  0.502283 
6191.20  0.659068 
6200.40  0.681317 
6209.60  0.823704 
6218.80  0.962534 
6228.00  0.846833 
6237.20  0.788039 
6246.40  0.662123 
6255.60  0.751600 
6264.80  1.211594 
6274.00  0.584384 
6283.20  0.730861 
6292.40  0.503579 
6301.60  1.124833 
6310.80  0.808657 
6320.00  0.743812 
6329.20  0.977809 
6338.40  0.607434 
6347.60  0.775688 
6356.80  0.862794 
6366.00  0.638153 
6375.20  0.505672 
6384.40  0.883551 
6393.60  0.937201 
6402.80  1.050785 
6412.00  0.848626 
6421.20  0.647626 
6430.40  0.708850 
6439.60  0.748828 
6448.80  0.658292 
6458.00  0.810465 
6467.20  0.807526 
6476.40  0.942425 
6485.60  0.617620 
6494.80  0.825473 
6504.00  0.583759 
6513.20  1.039026 
6522.40  0.576302 
6531.60  0.767299 
6540.80  0.645384 
6550.00  0.769593 
6559.20  0.793790 
6568.40  0.704099 
6577.60  0.746031 
6586.80  0.942654 
6596.00  0.924673 
6605.20  0.793909 
6614.40  0.458168 
6623.60  0.570122 
6632.80  0.714772 
6642.00  0.873533 
6651.20  0.385534 
6660.40  0.668973 
6669.60  0.965644 
6678.80  0.866550 
6688.00  0.649435 
6697.20  0.718978 
6706.40  1.108872 
6715.60  0.558288 
6724.80  0.764922 
6734.00  0.712647 
6743.20  0.461345 
6752.40  0.669509 
6761.60  0.692171 
6770.80  0.707820 
6780.00  0.851652 
6789.20  0.732750 
6798.40  0.668060 
6807.60  0.604561 
6816.80  0.840280 
6826.00  0.996796 
6835.20  0.474780 
6844.40  0.857468 
6853.60  0.541759 
6862.80  0.849728 
6872.00  0.166214 
6881.20  0.836941 
6890.40  1.050019 
6899.60  0.513573 
6908.80  0.767382 
6918.00  0.751127 
6927.20  0.575479 
6936.40  0.579025 
6945.60  0.568901 
6954.80  0.957821 
6964.00  0.910415 
6973.20  0.633641 
6982.40  0.979024 
6991.60  0.859586 
7000.80  0.398647 
7010.00  1.272557 
7019.20  0.425757 
7028.40  0.867070 
7037.60  0.781061 
7046.80  0.744908 
7056.00  1.119576 
7065.20  0.435804 
7074.40  1.114095 
7083.60  0.793200 
7092.80  0.483842 
7102.00  0.802788 
7111.20  0.782258 
7120.40  0.553480 
7129.60 -0.036853 
7138.80  0.224529 
7148.00  0.457727 
7157.20  0.740368 
7166.40  0.739404 
7175.60  0.850212 
7184.80  0.611186 
7194.00  0.604479 
7203.20  0.839548 
7212.40  0.870423 
7221.60  0.668908 
7230.80  0.656497 
7240.00  0.605772 
7249.20  0.349116 
7258.40  0.453872 
7267.60  0.318862 
7276.80  0.473955 
7286.00  0.878289 
7295.20  0.375035 
7304.40  1.075724 
7313.60  1.520671 
7322.80  0.435933 
7332.00  0.604829 
7341.20  0.825381 
7350.40  0.409925 
7359.60  0.846043 
7368.80  0.720977 
7378.00  0.746963 
7387.20  0.566148 
7396.40  0.424651 
7405.60  0.251817 
7414.80  0.654760 
7424.00  0.851965 
7433.20  0.647086 
7442.40  0.488324 
7451.60  0.565483 
7460.80  0.692509 
7470.00  0.178367 
7479.20  0.851347 
7488.40  0.742601 
7497.60  1.166349 
7506.80  0.505788 
7516.00  0.975995 
7525.20  0.605551 
7534.40  0.317688 
7543.60  0.596621 
7552.80  0.763542 
7562.00  0.122850 
7571.20  0.476473 
7580.40  0.763297 
7589.60  0.676921 
7598.80  0.116094 
7608.00  0.342827 
7617.20  0.149343 
7626.40  0.356675 
7635.60  0.148956 
7644.80 -0.111755 
7654.00 -0.941145 
7663.20  0.939217 
7672.40  0.827197 
7681.60  1.468423 
7690.80  0.584414 
7700.00  0.118146 
7709.20  0.976612 
7718.40  0.804981 
7727.60  0.056756 
7736.80  0.672986 
7746.00 -0.072743 
7755.20 -0.250432 
7764.40  0.044949 
7773.60  0.018675 
7782.80  0.619143 
7792.00  1.185011 
7801.20  0.137330 
7810.40  2.126771 
7819.60  0.171650 
7828.80  0.344637 
7838.00  1.287495 
7847.20  0.564714 
7856.40  0.569140 
7865.60  0.606727 
7874.80  0.160057 
7884.00  0.992985 
7893.20  0.402973 
7902.40  0.843216 
7911.60 -0.009861 
7920.80  1.333153 
7930.00  0.238289 
7939.20 -1.228720 
7948.40  1.822445 
7957.60 -0.271883 
7966.80  1.871168 
7976.00  1.045717 
7985.20  2.532728 
7994.40  0.911386 
