Title: The Final Season Reimagined: 30 Tidal Disruption Events from the 
       ZTF-I Survey 
Authors: Hammerstein E., van Velzen S., Gezari S., Cenko S.B., Yao Y., Ward C.,
    Frederick S., Villanueva N., Somalwar J.J., Graham M.J., Kulkarni S.R., 
    Stern D., Andreoni I., Bellm E.C., Dekany R., Dhawan S., Drake A.J., 
    Fremling C., Gatkine P., Groom S.L., Ho A.Y.Q., Kasliwal M.M., 
    Karambelkar V., Kool E.C., Masci F.J., Medford M.S., Perley D.A., 
    Purdum J., van Roestel J., Sharma Y., Sollerman J., Taggart K., Yan L.
Table: Data behind Figures 14-16 -- P200 spectrum of ZTF18acaqdaa on 20191003
================================================================================
Byte-by-byte Description of file: ZTF18acaqdaa_20191003_P200_v1.mrt
--------------------------------------------------------------------------------
   Bytes Format Units       Label  Explanations
--------------------------------------------------------------------------------
   1-  9 F9.3   0.1nm       wave   Wavelength, Angstroms
  11- 20 A10    mW/m2/0.1nm flux   Flux density, calibrated, erg/cm^2/s/Ang
--------------------------------------------------------------------------------
 3400.000 1.7566e-16 
 3401.534 2.1749e-16 
 3403.069 1.6536e-16 
 3404.603 1.7803e-16 
 3406.137 2.0139e-16 
 3407.671 2.3733e-16 
 3409.206 2.1641e-16 
 3410.740 1.9273e-16 
 3412.274 1.9699e-16 
 3413.809 2.3931e-16 
 3415.343 2.1991e-16 
 3416.877 2.5002e-16 
 3418.412 2.391e-16  
 3419.946 2.6022e-16 
 3421.480 2.3582e-16 
 3423.014 2.4939e-16 
 3424.549 2.2149e-16 
 3426.083 2.2078e-16 
 3427.617 1.5654e-16 
 3429.152 1.3331e-16 
 3430.686 2.1005e-16 
 3432.220 1.9106e-16 
 3433.754 1.964e-16  
 3435.289 1.5246e-16 
 3436.823 2.1036e-16 
 3438.357 1.8804e-16 
 3439.892 1.8326e-16 
 3441.426 1.8774e-16 
 3442.960 2.093e-16  
 3444.495 1.8268e-16 
 3446.029 1.8087e-16 
 3447.563 1.7001e-16 
 3449.097 1.5034e-16 
 3450.632 1.5802e-16 
 3452.166 2.0885e-16 
 3453.700 1.9359e-16 
 3455.235 1.6682e-16 
 3456.769 1.1016e-16 
 3458.303 1.4406e-16 
 3459.837 1.6663e-16 
 3461.372 1.751e-16  
 3462.906 1.8715e-16 
 3464.440 1.9247e-16 
 3465.975 1.6527e-16 
 3467.509 1.6146e-16 
 3469.043 1.7803e-16 
 3470.578 2.4758e-16 
 3472.112 1.9102e-16 
 3473.646 1.7511e-16 
 3475.180 2.2934e-16 
 3476.715 2.0684e-16 
 3478.249 1.6576e-16 
 3479.783 1.5577e-16 
 3481.318 1.9369e-16 
 3482.852 1.8736e-16 
 3484.386 1.7861e-16 
 3485.920 2.0744e-16 
 3487.455 2.1216e-16 
 3488.989 2.0761e-16 
 3490.523 1.888e-16  
 3492.058 2.148e-16  
 3493.592 1.4372e-16 
 3495.126 1.7794e-16 
 3496.661 1.8288e-16 
 3498.195 1.9295e-16 
 3499.729 1.9548e-16 
 3501.263 2.0723e-16 
 3502.798 1.6892e-16 
 3504.332 2.1073e-16 
 3505.866 1.4259e-16 
 3507.401 1.5535e-16 
 3508.935 1.6161e-16 
 3510.469 1.7145e-16 
 3512.004 1.4225e-16 
 3513.538 1.8458e-16 
 3515.072 1.8155e-16 
 3516.606 1.5186e-16 
 3518.141 1.6821e-16 
 3519.675 1.5483e-16 
 3521.209 1.9033e-16 
 3522.744 1.5825e-16 
 3524.278 1.834e-16  
 3525.812 1.8031e-16 
 3527.346 1.6851e-16 
 3528.881 1.4558e-16 
 3530.415 1.7181e-16 
 3531.949 1.6393e-16 
 3533.484 1.5706e-16 
 3535.018 1.6621e-16 
 3536.552 1.7472e-16 
 3538.087 1.8324e-16 
 3539.621 1.5978e-16 
 3541.155 1.6702e-16 
 3542.689 1.8104e-16 
 3544.224 1.8883e-16 
 3545.758 2.1174e-16 
 3547.292 1.851e-16  
 3548.827 2.0058e-16 
 3550.361 2.1024e-16 
 3551.895 1.8015e-16 
 3553.429 1.7602e-16 
 3554.964 1.9731e-16 
 3556.498 2.0377e-16 
 3558.032 1.8808e-16 
 3559.567 1.6437e-16 
 3561.101 1.7607e-16 
 3562.635 1.7682e-16 
 3564.170 1.8835e-16 
 3565.704 1.6073e-16 
 3567.238 1.6287e-16 
 3568.772 1.7277e-16 
 3570.307 1.8811e-16 
 3571.841 2.0004e-16 
 3573.375 1.9282e-16 
 3574.910 1.7033e-16 
 3576.444 1.6812e-16 
 3577.978 1.4066e-16 
 3579.512 1.6875e-16 
 3581.047 1.7995e-16 
 3582.581 1.7084e-16 
 3584.115 1.6799e-16 
 3585.650 1.8018e-16 
 3587.184 1.6749e-16 
 3588.718 1.5613e-16 
 3590.253 1.8228e-16 
 3591.787 1.7182e-16 
 3593.321 1.7567e-16 
 3594.855 1.882e-16  
 3596.390 1.758e-16  
 3597.924 1.4526e-16 
 3599.458 1.3732e-16 
 3600.993 1.6856e-16 
 3602.527 2.0028e-16 
 3604.061 2.0345e-16 
 3605.595 2.0043e-16 
 3607.130 1.8394e-16 
 3608.664 1.9651e-16 
 3610.198 1.6096e-16 
 3611.733 1.7563e-16 
 3613.267 1.8287e-16 
 3614.801 1.8061e-16 
 3616.336 1.6124e-16 
 3617.870 1.7556e-16 
 3619.404 1.9017e-16 
 3620.938 1.776e-16  
 3622.473 1.5389e-16 
 3624.007 1.7643e-16 
 3625.542 1.9371e-16 
 3627.076 1.5034e-16 
 3628.610 1.8886e-16 
 3630.144 1.8086e-16 
 3631.678 1.9763e-16 
 3633.213 1.9203e-16 
 3634.747 1.7756e-16 
 3636.281 1.8272e-16 
 3637.816 1.7501e-16 
 3639.350 1.5983e-16 
 3640.884 1.7107e-16 
 3642.419 1.6696e-16 
 3643.953 1.9756e-16 
 3645.487 1.9213e-16 
 3647.021 1.6038e-16 
 3648.556 1.2058e-16 
 3650.090 1.6799e-16 
 3651.625 1.539e-16  
 3653.159 1.0399e-16 
 3654.693 1.2026e-16 
 3656.227 1.5405e-16 
 3657.761 1.3376e-16 
 3659.296 1.5881e-16 
 3660.830 1.6823e-16 
 3662.365 1.5804e-16 
 3663.899 1.5582e-16 
 3665.433 1.5841e-16 
 3666.967 1.3811e-16 
 3668.502 1.6244e-16 
 3670.036 1.4803e-16 
 3671.570 1.4468e-16 
 3673.104 1.5643e-16 
 3674.639 1.4389e-16 
 3676.173 1.8668e-16 
 3677.708 1.8281e-16 
 3679.242 1.9604e-16 
 3680.776 1.9401e-16 
 3682.310 1.5405e-16 
 3683.845 1.5553e-16 
 3685.379 1.6524e-16 
 3686.913 1.6363e-16 
 3688.448 1.6818e-16 
 3689.982 1.5079e-16 
 3691.516 1.5105e-16 
 3693.050 1.5432e-16 
 3694.585 1.2286e-16 
 3696.119 1.6017e-16 
 3697.653 1.7182e-16 
 3699.188 1.9514e-16 
 3700.722 1.8798e-16 
 3702.256 2.0416e-16 
 3703.791 1.7284e-16 
 3705.325 1.573e-16  
 3706.859 1.7103e-16 
 3708.393 1.7969e-16 
 3709.928 1.7349e-16 
 3711.462 1.8806e-16 
 3712.996 1.7893e-16 
 3714.531 1.6725e-16 
 3716.065 1.9797e-16 
 3717.599 1.5793e-16 
 3719.133 1.9306e-16 
 3720.668 1.6819e-16 
 3722.202 1.5356e-16 
 3723.736 1.3768e-16 
 3725.271 1.3708e-16 
 3726.805 1.6063e-16 
 3728.339 1.8846e-16 
 3729.874 1.5561e-16 
 3731.408 1.5378e-16 
 3732.942 1.405e-16  
 3734.476 1.5072e-16 
 3736.011 1.3899e-16 
 3737.545 1.3787e-16 
 3739.079 1.5332e-16 
 3740.614 1.4139e-16 
 3742.148 1.5192e-16 
 3743.682 1.7673e-16 
 3745.216 1.626e-16  
 3746.751 1.4054e-16 
 3748.285 1.2975e-16 
 3749.819 1.2296e-16 
 3751.354 1.5207e-16 
 3752.888 1.532e-16  
 3754.422 1.33e-16   
 3755.957 1.6537e-16 
 3757.491 1.6424e-16 
 3759.025 1.2913e-16 
 3760.559 1.2383e-16 
 3762.094 1.4071e-16 
 3763.628 1.5361e-16 
 3765.162 1.5117e-16 
 3766.697 1.4383e-16 
 3768.231 1.2655e-16 
 3769.765 1.2893e-16 
 3771.299 1.4799e-16 
 3772.834 1.5075e-16 
 3774.368 1.4701e-16 
 3775.902 1.6365e-16 
 3777.437 1.5811e-16 
 3778.971 1.4662e-16 
 3780.505 1.3749e-16 
 3782.040 1.2615e-16 
 3783.574 1.2919e-16 
 3785.108 1.2462e-16 
 3786.642 1.6107e-16 
 3788.177 1.5524e-16 
 3789.711 1.34e-16   
 3791.245 1.5026e-16 
 3792.780 1.6575e-16 
 3794.314 1.5786e-16 
 3795.848 1.5958e-16 
 3797.383 1.5019e-16 
 3798.917 1.3273e-16 
 3800.451 1.4122e-16 
 3801.985 1.5624e-16 
 3803.520 1.5083e-16 
 3805.054 1.281e-16  
 3806.588 1.6274e-16 
 3808.123 1.7214e-16 
 3809.657 1.2961e-16 
 3811.191 1.4144e-16 
 3812.725 1.5086e-16 
 3814.260 1.5875e-16 
 3815.794 1.6649e-16 
 3817.328 1.7397e-16 
 3818.863 1.4616e-16 
 3820.397 1.5655e-16 
 3821.931 1.5266e-16 
 3823.466 1.4826e-16 
 3825.000 1.3882e-16 
 3826.534 1.3497e-16 
 3828.068 1.4801e-16 
 3829.603 1.4453e-16 
 3831.137 1.4416e-16 
 3832.671 1.4689e-16 
 3834.206 1.5847e-16 
 3835.740 1.4168e-16 
 3837.274 1.5577e-16 
 3838.808 1.6328e-16 
 3840.343 1.4624e-16 
 3841.877 1.4788e-16 
 3843.411 1.5045e-16 
 3844.946 1.5651e-16 
 3846.480 1.5799e-16 
 3848.014 1.6286e-16 
 3849.549 1.6733e-16 
 3851.083 1.5883e-16 
 3852.617 1.668e-16  
 3854.151 1.5302e-16 
 3855.686 1.3655e-16 
 3857.220 1.4734e-16 
 3858.754 1.4963e-16 
 3860.289 1.5297e-16 
 3861.823 1.2932e-16 
 3863.357 1.3315e-16 
 3864.891 1.7127e-16 
 3866.426 1.669e-16  
 3867.960 1.415e-16  
 3869.494 1.5534e-16 
 3871.029 1.7452e-16 
 3872.563 1.4902e-16 
 3874.097 1.3593e-16 
 3875.632 1.6975e-16 
 3877.166 1.5096e-16 
 3878.700 1.407e-16  
 3880.234 1.4312e-16 
 3881.769 1.4016e-16 
 3883.303 1.3712e-16 
 3884.837 1.4622e-16 
 3886.372 1.4131e-16 
 3887.906 1.4357e-16 
 3889.440 1.3657e-16 
 3890.974 1.3742e-16 
 3892.509 1.4855e-16 
 3894.043 1.4067e-16 
 3895.577 1.4003e-16 
 3897.112 1.4474e-16 
 3898.646 1.4394e-16 
 3900.180 1.3463e-16 
 3901.715 1.3461e-16 
 3903.249 1.2879e-16 
 3904.783 1.4096e-16 
 3906.317 1.6736e-16 
 3907.852 1.6488e-16 
 3909.386 1.2479e-16 
 3910.920 1.3408e-16 
 3912.455 1.3816e-16 
 3913.989 1.3768e-16 
 3915.523 1.3045e-16 
 3917.057 1.43e-16   
 3918.592 1.4027e-16 
 3920.126 1.3674e-16 
 3921.660 1.2855e-16 
 3923.195 1.3302e-16 
 3924.729 1.3593e-16 
 3926.263 1.3485e-16 
 3927.798 1.4376e-16 
 3929.332 1.2754e-16 
 3930.866 1.4435e-16 
 3932.400 1.3831e-16 
 3933.935 1.4021e-16 
 3935.469 1.5453e-16 
 3937.003 1.6053e-16 
 3938.538 1.5026e-16 
 3940.072 1.6248e-16 
 3941.606 1.7132e-16 
 3943.140 1.7423e-16 
 3944.675 1.4024e-16 
 3946.209 1.5234e-16 
 3947.743 1.4331e-16 
 3949.278 1.6716e-16 
 3950.812 1.5336e-16 
 3952.346 1.3851e-16 
 3953.881 1.7379e-16 
 3955.415 1.6849e-16 
 3956.949 1.6173e-16 
 3958.483 1.502e-16  
 3960.018 1.4274e-16 
 3961.552 1.4334e-16 
 3963.086 1.4657e-16 
 3964.621 1.5128e-16 
 3966.155 1.5693e-16 
 3967.689 1.3885e-16 
 3969.223 1.4547e-16 
 3970.758 1.5603e-16 
 3972.292 1.6479e-16 
 3973.826 1.5878e-16 
 3975.361 1.5543e-16 
 3976.895 1.5736e-16 
 3978.429 1.3763e-16 
 3979.964 1.4212e-16 
 3981.498 1.3755e-16 
 3983.032 1.68e-16   
 3984.566 1.6246e-16 
 3986.101 1.5008e-16 
 3987.635 1.4985e-16 
 3989.169 1.425e-16  
 3990.704 1.287e-16  
 3992.238 1.3867e-16 
 3993.772 1.3768e-16 
 3995.307 1.5234e-16 
 3996.841 1.6656e-16 
 3998.375 1.7178e-16 
 3999.909 1.5848e-16 
 4001.444 1.5116e-16 
 4002.978 1.5226e-16 
 4004.512 1.5417e-16 
 4006.047 1.6344e-16 
 4007.581 1.5336e-16 
 4009.115 1.4831e-16 
 4010.649 1.6035e-16 
 4012.184 1.678e-16  
 4013.718 1.6781e-16 
 4015.252 1.6066e-16 
 4016.787 1.6837e-16 
 4018.321 1.668e-16  
 4019.855 1.5111e-16 
 4021.390 1.4621e-16 
 4022.924 1.3992e-16 
 4024.458 1.5028e-16 
 4025.992 1.4017e-16 
 4027.527 1.4764e-16 
 4029.061 1.4451e-16 
 4030.595 1.5348e-16 
 4032.130 1.9271e-16 
 4033.664 1.5571e-16 
 4035.198 1.6254e-16 
 4036.732 1.5335e-16 
 4038.267 1.4781e-16 
 4039.801 1.6189e-16 
 4041.335 1.443e-16  
 4042.870 1.5347e-16 
 4044.404 1.3486e-16 
 4045.938 1.4451e-16 
 4047.473 2.2241e-16 
 4049.007 1.5632e-16 
 4050.541 1.2839e-16 
 4052.075 1.5292e-16 
 4053.610 1.6401e-16 
 4055.144 1.3764e-16 
 4056.678 1.4346e-16 
 4058.213 1.4111e-16 
 4059.747 1.5156e-16 
 4061.281 1.4164e-16 
 4062.815 1.4136e-16 
 4064.350 1.436e-16  
 4065.884 1.5596e-16 
 4067.418 1.5149e-16 
 4068.953 1.476e-16  
 4070.487 1.698e-16  
 4072.021 1.4201e-16 
 4073.556 1.503e-16  
 4075.090 1.3395e-16 
 4076.624 1.6144e-16 
 4078.158 1.5343e-16 
 4079.693 1.2181e-16 
 4081.227 1.4568e-16 
 4082.761 1.6536e-16 
 4084.296 1.6014e-16 
 4085.830 1.2861e-16 
 4087.364 1.3004e-16 
 4088.898 1.2361e-16 
 4090.433 1.4183e-16 
 4091.967 1.3797e-16 
 4093.501 1.4589e-16 
 4095.036 1.464e-16  
 4096.570 1.3217e-16 
 4098.104 1.2982e-16 
 4099.639 1.3164e-16 
 4101.173 1.3613e-16 
 4102.707 1.2308e-16 
 4104.242 1.2681e-16 
 4105.776 1.454e-16  
 4107.310 1.5553e-16 
 4108.844 1.4388e-16 
 4110.379 1.4367e-16 
 4111.913 1.3765e-16 
 4113.447 1.4309e-16 
 4114.981 1.3944e-16 
 4116.516 1.4053e-16 
 4118.050 1.5036e-16 
 4119.584 1.5396e-16 
 4121.119 1.5297e-16 
 4122.653 1.4497e-16 
 4124.188 1.5448e-16 
 4125.722 1.6577e-16 
 4127.256 1.5786e-16 
 4128.790 1.5226e-16 
 4130.325 1.4092e-16 
 4131.859 1.5134e-16 
 4133.393 1.5411e-16 
 4134.927 1.4451e-16 
 4136.462 1.6683e-16 
 4137.996 1.4568e-16 
 4139.530 1.361e-16  
 4141.064 1.5556e-16 
 4142.599 1.498e-16  
 4144.133 1.6565e-16 
 4145.667 1.6558e-16 
 4147.202 1.5326e-16 
 4148.736 1.4248e-16 
 4150.271 1.4543e-16 
 4151.805 1.5124e-16 
 4153.339 1.3853e-16 
 4154.873 1.4451e-16 
 4156.408 1.4926e-16 
 4157.942 1.4772e-16 
 4159.476 1.5109e-16 
 4161.010 1.3713e-16 
 4162.545 1.2828e-16 
 4164.079 1.2874e-16 
 4165.613 1.5417e-16 
 4167.147 1.5187e-16 
 4168.682 1.3025e-16 
 4170.216 1.4311e-16 
 4171.750 1.5542e-16 
 4173.285 1.28e-16   
 4174.819 1.2994e-16 
 4176.354 1.411e-16  
 4177.888 1.2645e-16 
 4179.422 1.3593e-16 
 4180.956 1.5657e-16 
 4182.491 1.1338e-16 
 4184.025 1.4296e-16 
 4185.559 1.6254e-16 
 4187.093 1.4452e-16 
 4188.628 1.4736e-16 
 4190.162 1.363e-16  
 4191.696 1.4083e-16 
 4193.230 1.5187e-16 
 4194.765 1.3507e-16 
 4196.299 1.2907e-16 
 4197.833 1.4369e-16 
 4199.368 1.6391e-16 
 4200.902 1.6518e-16 
 4202.437 1.4906e-16 
 4203.971 1.4326e-16 
 4205.505 1.3731e-16 
 4207.039 1.5131e-16 
 4208.574 1.4819e-16 
 4210.108 1.1603e-16 
 4211.642 1.4337e-16 
 4213.176 1.3392e-16 
 4214.711 1.4291e-16 
 4216.245 1.5532e-16 
 4217.779 1.4603e-16 
 4219.313 1.4342e-16 
 4220.848 1.5148e-16 
 4222.382 1.4597e-16 
 4223.917 1.4552e-16 
 4225.451 1.3747e-16 
 4226.985 1.5678e-16 
 4228.520 1.574e-16  
 4230.054 1.3133e-16 
 4231.588 1.1699e-16 
 4233.122 1.4952e-16 
 4234.657 1.521e-16  
 4236.191 1.2816e-16 
 4237.725 1.1998e-16 
 4239.259 1.2548e-16 
 4240.794 1.2937e-16 
 4242.328 1.49e-16   
 4243.862 1.4997e-16 
 4245.396 1.3507e-16 
 4246.931 1.4956e-16 
 4248.465 1.2899e-16 
 4250.000 1.1048e-16 
 4251.534 1.5363e-16 
 4253.068 1.3946e-16 
 4254.603 1.3072e-16 
 4256.137 1.3705e-16 
 4257.671 1.2542e-16 
 4259.205 1.2887e-16 
 4260.740 1.3137e-16 
 4262.274 1.3505e-16 
 4263.808 1.2614e-16 
 4265.342 1.3047e-16 
 4266.877 1.412e-16  
 4268.411 1.3846e-16 
 4269.945 1.4402e-16 
 4271.479 1.2746e-16 
 4273.014 1.1789e-16 
 4274.548 1.2212e-16 
 4276.083 1.3166e-16 
 4277.617 1.4842e-16 
 4279.151 1.3251e-16 
 4280.686 1.4387e-16 
 4282.220 1.4506e-16 
 4283.754 1.6054e-16 
 4285.288 1.42e-16   
 4286.823 1.2251e-16 
 4288.357 1.3834e-16 
 4289.891 1.5651e-16 
 4291.425 1.5164e-16 
 4292.960 1.4224e-16 
 4294.494 1.1287e-16 
 4296.028 1.2146e-16 
 4297.562 1.4006e-16 
 4299.097 1.2657e-16 
 4300.631 1.2707e-16 
 4302.166 1.3297e-16 
 4303.700 1.4033e-16 
 4305.234 1.4034e-16 
 4306.769 1.307e-16  
 4308.303 1.2157e-16 
 4309.837 1.2261e-16 
 4311.371 1.1526e-16 
 4312.906 1.123e-16  
 4314.440 1.3305e-16 
 4315.974 1.4959e-16 
 4317.508 1.1393e-16 
 4319.043 1.1321e-16 
 4320.577 1.3097e-16 
 4322.111 1.4553e-16 
 4323.646 1.6026e-16 
 4325.180 1.3349e-16 
 4326.714 1.1995e-16 
 4328.249 1.2017e-16 
 4329.783 1.2305e-16 
 4331.317 1.3232e-16 
 4332.852 1.3006e-16 
 4334.386 1.3577e-16 
 4335.920 1.2591e-16 
 4337.455 1.2978e-16 
 4338.989 1.218e-16  
 4340.523 1.3998e-16 
 4342.057 1.4229e-16 
 4343.591 1.1823e-16 
 4345.126 1.2199e-16 
 4346.660 1.3726e-16 
 4348.194 1.3892e-16 
 4349.729 1.3553e-16 
 4351.263 1.4931e-16 
 4352.797 1.459e-16  
 4354.332 1.3357e-16 
 4355.866 1.6298e-16 
 4357.400 1.7587e-16 
 4358.935 1.7632e-16 
 4360.469 1.6753e-16 
 4362.003 1.0783e-16 
 4363.538 1.3487e-16 
 4365.072 1.4877e-16 
 4366.606 1.4286e-16 
 4368.140 1.5956e-16 
 4369.674 1.4846e-16 
 4371.209 1.3732e-16 
 4372.743 1.3974e-16 
 4374.277 1.4211e-16 
 4375.812 1.4946e-16 
 4377.346 1.4504e-16 
 4378.880 1.7248e-16 
 4380.415 1.6721e-16 
 4381.949 1.5503e-16 
 4383.483 1.2554e-16 
 4385.018 1.2602e-16 
 4386.552 1.2947e-16 
 4388.086 1.3973e-16 
 4389.621 1.4271e-16 
 4391.155 1.5374e-16 
 4392.689 1.6607e-16 
 4394.223 1.567e-16  
 4395.757 1.4906e-16 
 4397.292 1.6265e-16 
 4398.826 1.5708e-16 
 4400.360 1.4178e-16 
 4401.895 1.5725e-16 
 4403.429 1.3799e-16 
 4404.963 1.2434e-16 
 4406.498 1.2556e-16 
 4408.032 1.3243e-16 
 4409.566 1.4779e-16 
 4411.101 1.7043e-16 
 4412.635 1.5482e-16 
 4414.169 1.3276e-16 
 4415.704 1.5582e-16 
 4417.238 1.5096e-16 
 4418.772 1.3552e-16 
 4420.306 1.2592e-16 
 4421.841 1.4686e-16 
 4423.375 1.5719e-16 
 4424.909 1.2706e-16 
 4426.443 1.3407e-16 
 4427.978 1.2686e-16 
 4429.512 1.246e-16  
 4431.046 1.5779e-16 
 4432.581 1.5024e-16 
 4434.115 1.2125e-16 
 4435.649 1.2626e-16 
 4437.184 1.4942e-16 
 4438.718 1.4092e-16 
 4440.252 1.3393e-16 
 4441.787 1.536e-16  
 4443.321 1.4936e-16 
 4444.855 1.366e-16  
 4446.389 1.6153e-16 
 4447.924 1.3877e-16 
 4449.458 1.34e-16   
 4450.992 1.4378e-16 
 4452.526 1.4566e-16 
 4454.061 1.4616e-16 
 4455.595 1.4385e-16 
 4457.129 1.3044e-16 
 4458.664 1.3357e-16 
 4460.198 1.3657e-16 
 4461.732 1.4503e-16 
 4463.267 1.3008e-16 
 4464.801 1.2969e-16 
 4466.335 1.042e-16  
 4467.870 1.1928e-16 
 4469.404 1.3719e-16 
 4470.938 1.7068e-16 
 4472.472 1.4257e-16 
 4474.007 1.49e-16   
 4475.541 1.4131e-16 
 4477.075 1.3694e-16 
 4478.609 1.3317e-16 
 4480.144 1.4359e-16 
 4481.678 1.4519e-16 
 4483.212 1.3113e-16 
 4484.747 1.1789e-16 
 4486.281 1.2319e-16 
 4487.815 1.4368e-16 
 4489.350 1.6941e-16 
 4490.884 1.4231e-16 
 4492.418 1.2417e-16 
 4493.953 1.3373e-16 
 4495.487 1.1361e-16 
 4497.021 1.4571e-16 
 4498.555 1.2954e-16 
 4500.090 1.4013e-16 
 4501.624 1.2402e-16 
 4503.158 1.0105e-16 
 4504.692 1.2228e-16 
 4506.227 1.2724e-16 
 4507.761 1.453e-16  
 4509.295 1.2694e-16 
 4510.830 1.2046e-16 
 4512.364 1.3036e-16 
 4513.898 9.3157e-17 
 4515.433 1.1737e-16 
 4516.967 1.2322e-16 
 4518.501 1.4734e-16 
 4520.036 1.1975e-16 
 4521.570 1.2774e-16 
 4523.104 1.4907e-16 
 4524.638 1.2774e-16 
 4526.173 1.0438e-16 
 4527.707 1.1751e-16 
 4529.241 1.3242e-16 
 4530.775 1.4804e-16 
 4532.310 1.4041e-16 
 4533.844 1.3837e-16 
 4535.378 1.1913e-16 
 4536.913 1.3293e-16 
 4538.447 1.3408e-16 
 4539.981 1.2963e-16 
 4541.516 1.0792e-16 
 4543.050 1.0579e-16 
 4544.584 1.207e-16  
 4546.119 1.3632e-16 
 4547.653 1.2999e-16 
 4549.187 1.3352e-16 
 4550.721 1.5062e-16 
 4552.256 1.4188e-16 
 4553.790 1.3508e-16 
 4555.324 1.2998e-16 
 4556.858 1.3812e-16 
 4558.393 1.4022e-16 
 4559.927 1.0466e-16 
 4561.461 1.1841e-16 
 4562.996 1.1255e-16 
 4564.530 1.1788e-16 
 4566.064 1.2421e-16 
 4567.599 1.478e-16  
 4569.133 1.4453e-16 
 4570.667 1.2543e-16 
 4572.202 1.3215e-16 
 4573.736 1.3839e-16 
 4575.270 1.3446e-16 
 4576.804 1.1693e-16 
 4578.339 1.2734e-16 
 4579.873 1.1825e-16 
 4581.407 1.184e-16  
 4582.941 1.3551e-16 
 4584.476 1.3674e-16 
 4586.010 1.3952e-16 
 4587.544 1.2518e-16 
 4589.079 1.3386e-16 
 4590.613 1.337e-16  
 4592.147 1.3612e-16 
 4593.682 1.3264e-16 
 4595.216 1.2803e-16 
 4596.750 1.3394e-16 
 4598.285 1.3363e-16 
 4599.819 1.3841e-16 
 4601.353 1.2414e-16 
 4602.887 1.0639e-16 
 4604.422 1.2165e-16 
 4605.956 1.2559e-16 
 4607.490 1.102e-16  
 4609.024 1.1466e-16 
 4610.559 1.2787e-16 
 4612.093 1.3964e-16 
 4613.627 1.327e-16  
 4615.162 1.1759e-16 
 4616.696 1.4988e-16 
 4618.230 1.315e-16  
 4619.765 1.154e-16  
 4621.299 1.2905e-16 
 4622.833 1.2092e-16 
 4624.368 1.2725e-16 
 4625.902 1.387e-16  
 4627.436 1.3781e-16 
 4628.970 1.4623e-16 
 4630.505 1.2611e-16 
 4632.039 1.3393e-16 
 4633.573 1.2923e-16 
 4635.107 1.2449e-16 
 4636.642 1.174e-16  
 4638.176 1.2637e-16 
 4639.710 1.2591e-16 
 4641.245 1.1265e-16 
 4642.779 1.1256e-16 
 4644.313 1.1751e-16 
 4645.848 1.1364e-16 
 4647.382 1.0102e-16 
 4648.917 1.0834e-16 
 4650.451 1.0819e-16 
 4651.985 1.2563e-16 
 4653.519 1.1202e-16 
 4655.053 1.1765e-16 
 4656.588 1.1313e-16 
 4658.122 1.2328e-16 
 4659.656 1.2312e-16 
 4661.190 1.2782e-16 
 4662.725 1.3218e-16 
 4664.259 1.356e-16  
 4665.793 1.1672e-16 
 4667.328 1.1916e-16 
 4668.862 1.2791e-16 
 4670.396 1.1662e-16 
 4671.931 1.2857e-16 
 4673.465 1.258e-16  
 4675.000 1.1537e-16 
 4676.534 1.2522e-16 
 4678.068 1.0359e-16 
 4679.602 1.2741e-16 
 4681.136 1.501e-16  
 4682.671 1.187e-16  
 4684.205 1.1812e-16 
 4685.739 1.0975e-16 
 4687.273 1.0106e-16 
 4688.808 1.1145e-16 
 4690.342 9.6087e-17 
 4691.876 8.9878e-17 
 4693.411 1.0847e-16 
 4694.945 9.7405e-17 
 4696.479 9.716e-17  
 4698.014 1.1271e-16 
 4699.548 1.1287e-16 
 4701.083 1.2207e-16 
 4702.617 1.2566e-16 
 4704.151 1.1062e-16 
 4705.685 1.1923e-16 
 4707.220 1.1393e-16 
 4708.754 1.054e-16  
 4710.288 1.1373e-16 
 4711.822 1.3355e-16 
 4713.356 1.4266e-16 
 4714.891 1.0772e-16 
 4716.425 1.0514e-16 
 4717.959 1.135e-16  
 4719.494 1.2951e-16 
 4721.028 1.3377e-16 
 4722.562 1.2318e-16 
 4724.097 1.2361e-16 
 4725.631 1.2265e-16 
 4727.166 1.2209e-16 
 4728.700 1.2236e-16 
 4730.234 1.3454e-16 
 4731.768 1.3061e-16 
 4733.303 1.1946e-16 
 4734.837 1.3546e-16 
 4736.371 1.3858e-16 
 4737.905 1.1258e-16 
 4739.439 1.2312e-16 
 4740.974 1.4227e-16 
 4742.508 1.2925e-16 
 4744.042 1.082e-16  
 4745.577 1.3183e-16 
 4747.111 1.2135e-16 
 4748.646 1.2182e-16 
 4750.180 1.0889e-16 
 4751.714 1.2292e-16 
 4753.249 1.2377e-16 
 4754.783 1.2583e-16 
 4756.317 1.1125e-16 
 4757.851 1.0291e-16 
 4759.386 9.1443e-17 
 4760.920 1.2372e-16 
 4762.454 1.1481e-16 
 4763.988 9.3215e-17 
 4765.522 7.4418e-17 
 4767.057 8.2002e-17 
 4768.591 1.1542e-16 
 4770.125 1.0219e-16 
 4771.660 9.8788e-17 
 4773.194 7.4534e-17 
 4774.729 8.9744e-17 
 4776.263 1.0487e-16 
 4777.797 1.2141e-16 
 4779.332 1.2716e-16 
 4780.866 1.0808e-16 
 4782.400 8.9771e-17 
 4783.934 1.2009e-16 
 4785.469 1.3038e-16 
 4787.003 1.2088e-16 
 4788.537 1.201e-16  
 4790.071 1.3102e-16 
 4791.606 1.3979e-16 
 4793.140 1.1921e-16 
 4794.674 1.1222e-16 
 4796.208 1.071e-16  
 4797.743 1.1292e-16 
 4799.277 1.2763e-16 
 4800.812 1.1942e-16 
 4802.346 1.1068e-16 
 4803.880 1.1425e-16 
 4805.415 1.2095e-16 
 4806.949 1.0745e-16 
 4808.483 1.0773e-16 
 4810.017 1.1198e-16 
 4811.552 1.1729e-16 
 4813.086 1.0473e-16 
 4814.620 8.5906e-17 
 4816.154 1.0617e-16 
 4817.689 1.1415e-16 
 4819.223 1.0564e-16 
 4820.757 8.6974e-17 
 4822.292 1.3013e-16 
 4823.826 1.2695e-16 
 4825.360 1.2787e-16 
 4826.895 8.9084e-17 
 4828.429 9.319e-17  
 4829.963 1.1978e-16 
 4831.498 1.0266e-16 
 4833.032 1.1485e-16 
 4834.566 1.3424e-16 
 4836.100 1.4429e-16 
 4837.635 1.3268e-16 
 4839.169 1.515e-16  
 4840.703 1.5895e-16 
 4842.237 1.6403e-16 
 4843.772 1.407e-16  
 4845.306 1.5556e-16 
 4846.840 1.8031e-16 
 4848.375 1.3528e-16 
 4849.909 1.2775e-16 
 4851.443 1.4685e-16 
 4852.978 1.4985e-16 
 4854.512 1.4527e-16 
 4856.046 1.5932e-16 
 4857.581 1.4975e-16 
 4859.115 1.3517e-16 
 4860.649 1.5223e-16 
 4862.183 1.655e-16  
 4863.718 1.5949e-16 
 4865.252 1.4895e-16 
 4866.786 1.5077e-16 
 4868.320 1.647e-16  
 4869.855 1.451e-16  
 4871.389 1.3478e-16 
 4872.923 1.2853e-16 
 4874.458 1.3801e-16 
 4875.992 1.3612e-16 
 4877.526 1.1227e-16 
 4879.061 1.202e-16  
 4880.595 1.227e-16  
 4882.129 1.3318e-16 
 4883.664 1.0914e-16 
 4885.198 1.2052e-16 
 4886.732 1.3733e-16 
 4888.266 1.2042e-16 
 4889.801 1.2721e-16 
 4891.335 1.2419e-16 
 4892.869 1.2679e-16 
 4894.403 1.306e-16  
 4895.938 1.2356e-16 
 4897.472 1.3586e-16 
 4899.006 1.3477e-16 
 4900.541 1.3779e-16 
 4902.075 1.4659e-16 
 4903.609 1.2339e-16 
 4905.144 1.1374e-16 
 4906.678 1.2004e-16 
 4908.212 1.2768e-16 
 4909.747 1.294e-16  
 4911.281 1.339e-16  
 4912.815 1.4862e-16 
 4914.349 1.2571e-16 
 4915.884 1.1769e-16 
 4917.418 1.1502e-16 
 4918.952 1.2406e-16 
 4920.486 1.359e-16  
 4922.021 1.2866e-16 
 4923.555 1.2348e-16 
 4925.089 1.2663e-16 
 4926.624 1.2763e-16 
 4928.158 1.2011e-16 
 4929.692 1.2457e-16 
 4931.227 1.3018e-16 
 4932.761 1.3039e-16 
 4934.295 1.2422e-16 
 4935.830 1.1729e-16 
 4937.364 1.1739e-16 
 4938.898 1.0758e-16 
 4940.432 1.2913e-16 
 4941.967 1.165e-16  
 4943.501 1.1757e-16 
 4945.035 1.4134e-16 
 4946.569 1.4217e-16 
 4948.104 1.2748e-16 
 4949.638 1.135e-16  
 4951.172 1.2026e-16 
 4952.707 1.1579e-16 
 4954.241 1.206e-16  
 4955.775 1.1135e-16 
 4957.310 1.2348e-16 
 4958.844 1.3743e-16 
 4960.378 1.2967e-16 
 4961.913 1.167e-16  
 4963.447 1.2578e-16 
 4964.981 1.1164e-16 
 4966.515 1.2531e-16 
 4968.050 1.1485e-16 
 4969.584 1.145e-16  
 4971.118 1.0001e-16 
 4972.652 8.8376e-17 
 4974.187 9.3549e-17 
 4975.721 1.148e-16  
 4977.255 1.036e-16  
 4978.790 1.2465e-16 
 4980.324 1.1888e-16 
 4981.858 1.2927e-16 
 4983.393 1.2014e-16 
 4984.927 9.5258e-17 
 4986.461 1.0393e-16 
 4987.996 1.1049e-16 
 4989.530 1.3497e-16 
 4991.064 1.2258e-16 
 4992.598 1.0583e-16 
 4994.133 1.2802e-16 
 4995.667 1.2463e-16 
 4997.201 1.2875e-16 
 4998.735 1.2941e-16 
 5000.270 1.4228e-16 
 5001.804 1.181e-16  
 5003.338 1.3941e-16 
 5004.873 1.4348e-16 
 5006.407 1.2123e-16 
 5007.941 1.1613e-16 
 5009.476 9.7827e-17 
 5011.010 1.0633e-16 
 5012.544 1.3113e-16 
 5014.079 1.2817e-16 
 5015.613 1.2438e-16 
 5017.147 1.3564e-16 
 5018.682 1.2306e-16 
 5020.216 1.405e-16  
 5021.750 1.298e-16  
 5023.284 1.2713e-16 
 5024.818 1.3577e-16 
 5026.353 1.1597e-16 
 5027.887 1.1462e-16 
 5029.421 1.1837e-16 
 5030.956 1.0704e-16 
 5032.490 1.2394e-16 
 5034.024 1.23e-16   
 5035.559 1.1588e-16 
 5037.093 1.0071e-16 
 5038.627 1.0654e-16 
 5040.162 1.2912e-16 
 5041.696 1.4412e-16 
 5043.230 1.4016e-16 
 5044.765 1.2808e-16 
 5046.299 1.079e-16  
 5047.833 1.2219e-16 
 5049.367 1.1263e-16 
 5050.901 1.1558e-16 
 5052.436 1.1827e-16 
 5053.970 1.1381e-16 
 5055.504 1.1943e-16 
 5057.039 1.278e-16  
 5058.573 1.366e-16  
 5060.107 1.211e-16  
 5061.642 1.1443e-16 
 5063.176 1.2391e-16 
 5064.710 1.311e-16  
 5066.245 1.307e-16  
 5067.779 1.1921e-16 
 5069.313 1.1815e-16 
 5070.848 1.1953e-16 
 5072.382 1.0828e-16 
 5073.916 1.2243e-16 
 5075.450 1.1341e-16 
 5076.984 9.8203e-17 
 5078.519 1.2219e-16 
 5080.053 1.134e-16  
 5081.587 1.3079e-16 
 5083.122 1.2868e-16 
 5084.656 1.2782e-16 
 5086.190 1.0136e-16 
 5087.725 1.144e-16  
 5089.259 1.1887e-16 
 5090.793 1.1236e-16 
 5092.328 1.2123e-16 
 5093.862 1.0298e-16 
 5095.396 1.1379e-16 
 5096.931 1.2071e-16 
 5098.465 1.4458e-16 
 5099.999 1.3726e-16 
 5101.533 1.1745e-16 
 5103.068 1.2571e-16 
 5104.602 1.1073e-16 
 5106.136 1.215e-16  
 5107.670 1.3492e-16 
 5109.205 9.8123e-17 
 5110.739 1.0885e-16 
 5112.273 1.3149e-16 
 5113.808 1.2805e-16 
 5115.342 1.4071e-16 
 5116.876 1.317e-16  
 5118.411 1.1346e-16 
 5119.945 1.2976e-16 
 5121.479 1.0611e-16 
 5123.014 9.5356e-17 
 5124.548 1.067e-16  
 5126.082 1.2726e-16 
 5127.616 1.2852e-16 
 5129.151 1.1571e-16 
 5130.685 9.9113e-17 
 5132.219 1.168e-16  
 5133.753 1.2646e-16 
 5135.288 1.2681e-16 
 5136.822 1.3548e-16 
 5138.356 1.0947e-16 
 5139.891 1.1764e-16 
 5141.425 1.1958e-16 
 5142.959 1.1231e-16 
 5144.494 1.1474e-16 
 5146.028 1.1458e-16 
 5147.562 1.0102e-16 
 5149.097 1.26e-16   
 5150.631 1.3049e-16 
 5152.165 1.1068e-16 
 5153.699 1.174e-16  
 5155.234 1.3184e-16 
 5156.768 1.187e-16  
 5158.302 1.215e-16  
 5159.836 1.1542e-16 
 5161.371 1.4473e-16 
 5162.905 1.5815e-16 
 5164.439 1.2136e-16 
 5165.974 1.2148e-16 
 5167.508 1.4049e-16 
 5169.042 1.227e-16  
 5170.577 1.0881e-16 
 5172.111 1.1006e-16 
 5173.645 1.2478e-16 
 5175.180 1.298e-16  
 5176.714 1.0658e-16 
 5178.248 1.1313e-16 
 5179.782 1.1229e-16 
 5181.317 1.2528e-16 
 5182.851 1.3704e-16 
 5184.385 1.3277e-16 
 5185.919 1.4075e-16 
 5187.454 1.3075e-16 
 5188.988 1.3228e-16 
 5190.522 1.2656e-16 
 5192.057 1.1673e-16 
 5193.591 1.3036e-16 
 5195.125 1.1869e-16 
 5196.660 1.2696e-16 
 5198.194 1.1577e-16 
 5199.728 1.1881e-16 
 5201.263 1.2103e-16 
 5202.797 1.3051e-16 
 5204.331 1.2706e-16 
 5205.865 1.1295e-16 
 5207.400 1.0884e-16 
 5208.934 1.1765e-16 
 5210.468 1.3524e-16 
 5212.002 1.2596e-16 
 5213.537 9.6025e-17 
 5215.071 8.3436e-17 
 5216.605 9.1392e-17 
 5218.140 1.0642e-16 
 5219.674 1.1955e-16 
 5221.208 1.2836e-16 
 5222.743 1.3047e-16 
 5224.277 1.1568e-16 
 5225.811 1.1459e-16 
 5227.346 1.421e-16  
 5228.880 1.3722e-16 
 5230.414 1.1951e-16 
 5231.948 1.2166e-16 
 5233.483 1.2273e-16 
 5235.017 1.1914e-16 
 5236.551 1.163e-16  
 5238.085 1.1697e-16 
 5239.620 1.1536e-16 
 5241.154 1.1616e-16 
 5242.688 1.1508e-16 
 5244.223 1.118e-16  
 5245.757 1.1287e-16 
 5247.292 1.1462e-16 
 5248.826 1.2611e-16 
 5250.360 1.1341e-16 
 5251.894 1.1921e-16 
 5253.429 1.296e-16  
 5254.963 1.4158e-16 
 5256.497 1.4434e-16 
 5258.031 1.3064e-16 
 5259.566 1.1729e-16 
 5261.100 1.2214e-16 
 5262.634 1.2872e-16 
 5264.168 1.3231e-16 
 5265.703 1.3017e-16 
 5267.237 1.1591e-16 
 5268.771 1.0429e-16 
 5270.306 1.3271e-16 
 5271.840 1.3898e-16 
 5273.375 1.2327e-16 
 5274.909 1.2463e-16 
 5276.443 1.1597e-16 
 5277.977 1.2918e-16 
 5279.512 1.4634e-16 
 5281.046 1.2948e-16 
 5282.580 1.3118e-16 
 5284.114 1.4318e-16 
 5285.649 1.3843e-16 
 5287.183 1.4501e-16 
 5288.717 1.3949e-16 
 5290.251 1.3067e-16 
 5291.786 1.5613e-16 
 5293.320 1.4888e-16 
 5294.854 1.2889e-16 
 5296.389 1.2248e-16 
 5297.923 1.3177e-16 
 5299.458 1.1727e-16 
 5300.992 1.2561e-16 
 5302.526 1.3836e-16 
 5304.061 1.2729e-16 
 5305.595 1.2234e-16 
 5307.129 1.221e-16  
 5308.663 1.3065e-16 
 5310.197 1.1785e-16 
 5311.732 1.2228e-16 
 5313.266 1.3343e-16 
 5314.800 1.1805e-16 
 5316.334 1.1655e-16 
 5317.869 1.2925e-16 
 5319.403 1.1733e-16 
 5320.938 1.4296e-16 
 5322.472 1.2158e-16 
 5324.006 1.1404e-16 
 5325.541 1.1308e-16 
 5327.075 1.2811e-16 
 5328.609 1.1231e-16 
 5330.144 1.3217e-16 
 5331.678 1.433e-16  
 5333.212 1.4055e-16 
 5334.746 1.4004e-16 
 5336.280 1.304e-16  
 5337.815 1.1328e-16 
 5339.349 9.9132e-17 
 5340.883 9.8579e-17 
 5342.417 1.0533e-16 
 5343.952 1.17e-16   
 5345.486 1.1245e-16 
 5347.021 1.3393e-16 
 5348.555 1.3871e-16 
 5350.089 1.2244e-16 
 5351.624 1.2369e-16 
 5353.158 1.3384e-16 
 5354.692 1.6203e-16 
 5356.227 1.6319e-16 
 5357.761 1.5425e-16 
 5359.295 1.6355e-16 
 5360.829 1.706e-16  
 5362.363 1.523e-16  
 5363.898 1.4239e-16 
 5365.432 1.6099e-16 
 5366.966 1.7474e-16 
 5368.500 1.3749e-16 
 5370.035 1.3544e-16 
 5371.569 1.5573e-16 
 5373.104 1.4774e-16 
 5374.638 1.1848e-16 
 5376.172 1.4101e-16 
 5377.707 1.5567e-16 
 5379.241 1.4576e-16 
 5380.775 1.6112e-16 
 5382.310 1.4446e-16 
 5383.844 1.4609e-16 
 5385.378 1.3767e-16 
 5386.912 1.4125e-16 
 5388.447 1.5264e-16 
 5389.981 1.4422e-16 
 5391.515 1.6545e-16 
 5393.049 1.7903e-16 
 5394.583 1.7531e-16 
 5396.118 1.4788e-16 
 5397.652 1.343e-16  
 5399.187 1.3887e-16 
 5400.721 1.3143e-16 
 5402.255 1.5047e-16 
 5403.790 1.6987e-16 
 5405.324 1.508e-16  
 5406.858 1.3115e-16 
 5408.393 1.3493e-16 
 5409.927 1.7427e-16 
 5411.461 1.6647e-16 
 5412.995 1.4685e-16 
 5414.530 1.3069e-16 
 5416.064 1.4374e-16 
 5417.598 1.5209e-16 
 5419.132 1.5934e-16 
 5420.667 1.3685e-16 
 5422.201 1.4869e-16 
 5423.735 1.3181e-16 
 5425.270 1.3218e-16 
 5426.804 1.1814e-16 
 5428.338 1.3311e-16 
 5429.873 1.6083e-16 
 5431.407 1.3108e-16 
 5432.941 1.5648e-16 
 5434.476 1.6851e-16 
 5436.010 1.636e-16  
 5437.544 1.6199e-16 
 5439.078 1.44e-16   
 5440.613 1.8645e-16 
 5442.147 1.5689e-16 
 5443.681 1.6458e-16 
 5445.215 1.7288e-16 
 5446.750 1.4966e-16 
 5448.284 1.1782e-16 
 5449.818 1.1781e-16 
 5451.353 1.399e-16  
 5452.887 1.3611e-16 
 5454.421 1.6691e-16 
 5455.956 1.5381e-16 
 5457.490 1.8375e-16 
 5459.024 1.8457e-16 
 5460.559 2.2041e-16 
 5462.093 1.9391e-16 
 5463.627 1.2848e-16 
 5465.161 1.405e-16  
 5466.696 1.0995e-16 
 5468.230 1.4479e-16 
 5469.764 1.8169e-16 
 5471.298 1.5992e-16 
 5472.833 1.5105e-16 
 5474.367 1.7441e-16 
 5475.901 1.9685e-16 
 5477.436 1.6604e-16 
 5478.970 1.7882e-16 
 5480.504 1.9465e-16 
 5482.039 1.8783e-16 
 5483.573 1.5055e-16 
 5485.107 1.3531e-16 
 5486.642 1.4913e-16 
 5488.176 1.5303e-16 
 5489.710 1.6573e-16 
 5491.244 1.3895e-16 
 5492.779 1.429e-16  
 5494.313 1.3566e-16 
 5495.847 1.3367e-16 
 5497.381 1.3937e-16 
 5498.916 1.5952e-16 
 5500.450 1.5033e-16 
 5501.984 1.5918e-16 
 5503.519 1.5286e-16 
 5505.053 1.3968e-16 
 5506.587 1.3385e-16 
 5508.122 1.2959e-16 
 5509.656 1.7059e-16 
 5511.190 1.5325e-16 
 5512.725 1.4411e-16 
 5514.259 1.6357e-16 
 5515.793 1.4893e-16 
 5517.327 1.4023e-16 
 5518.862 1.4816e-16 
 5520.396 1.5955e-16 
 5521.930 1.6113e-16 
 5523.464 1.5014e-16 
 5524.999 1.5941e-16 
 5526.533 1.7257e-16 
 5528.067 1.5868e-16 
 5529.602 1.6077e-16 
 5531.136 1.7586e-16 
 5532.670 1.6016e-16 
 5534.205 1.6636e-16 
 5535.739 1.907e-16  
 5537.273 2.0001e-16 
 5538.808 1.9341e-16 
 5540.342 1.8636e-16 
 5541.876 1.6077e-16 
 5543.410 1.7141e-16 
 5544.945 1.7427e-16 
 5546.479 1.7288e-16 
 5548.013 1.5186e-16 
 5549.547 1.6022e-16 
 5551.082 1.6749e-16 
 5552.616 1.5463e-16 
 5554.150 1.4482e-16 
 5555.685 1.8643e-16 
 5557.219 1.85e-16   
 5558.753 1.7237e-16 
 5560.288 1.6926e-16 
 5561.822 1.5634e-16 
 5563.356 1.5492e-16 
 5564.891 1.5404e-16 
 5566.425 1.5808e-16 
 5567.959 1.6671e-16 
 5569.493 1.5966e-16 
 5571.028 1.4528e-16 
 5572.562 1.6885e-16 
 5574.096 1.696e-16  
 5575.630 1.6011e-16 
 5577.165 1.7734e-16 
 5578.699 1.4038e-16 
 5580.233 1.1398e-16 
 5581.768 1.4874e-16 
 5583.302 1.595e-16  
 5584.836 1.6444e-16 
 5586.371 1.6457e-16 
 5587.905 1.6453e-16 
 5589.439 1.5003e-16 
 5590.974 1.5527e-16 
 5592.508 1.6552e-16 
 5594.042 1.7669e-16 
 5595.576 1.8113e-16 
 5597.111 1.7466e-16 
 5598.645 1.5858e-16 
 5600.179 1.5119e-16 
 5601.713 1.6664e-16 
 5603.248 1.8627e-16 
 5604.782 1.8651e-16 
 5606.316 1.7922e-16 
 5607.851 1.6714e-16 
 5609.385 1.7334e-16 
 5610.919 1.691e-16  
 5612.454 1.5267e-16 
 5613.988 1.4836e-16 
 5615.522 1.7629e-16 
 5617.057 1.741e-16  
 5618.591 1.4733e-16 
 5620.125 1.5406e-16 
 5621.659 1.5382e-16 
 5623.194 1.5102e-16 
 5624.728 1.5469e-16 
 5626.262 1.5958e-16 
 5627.796 1.6352e-16 
 5629.331 1.6947e-16 
 5630.865 1.5891e-16 
 5632.399 1.499e-16  
 5633.934 1.6556e-16 
 5635.468 1.5103e-16 
 5637.002 1.461e-16  
 5638.537 1.6493e-16 
 5640.071 1.5813e-16 
 5641.605 1.559e-16  
 5643.140 1.5759e-16 
 5644.674 1.5902e-16 
 5646.208 1.5743e-16 
 5647.742 1.6366e-16 
 5649.277 1.6138e-16 
 5650.811 1.5326e-16 
 5652.345 1.6737e-16 
 5653.879 1.6755e-16 
 5655.414 1.6555e-16 
 5656.948 1.5737e-16 
 5658.482 1.3597e-16 
 5660.017 1.3949e-16 
 5661.551 1.4529e-16 
 5663.085 1.4904e-16 
 5664.620 1.5003e-16 
 5666.154 1.5712e-16 
 5667.688 1.3548e-16 
 5669.223 1.4024e-16 
 5670.757 1.6505e-16 
 5672.291 1.612e-16  
 5673.825 1.502e-16  
 5675.360 1.3305e-16 
 5676.894 1.5775e-16 
 5678.428 1.6574e-16 
 5679.962 1.4929e-16 
 5681.497 1.6627e-16 
 5683.031 1.6108e-16 
 5684.565 1.4132e-16 
 5686.100 1.5407e-16 
 5687.634 1.707e-16  
 5689.168 1.3188e-16 
 5690.703 1.3408e-16 
 5692.237 1.6445e-16 
 5693.771 1.3807e-16 
 5695.306 1.3461e-16 
 5696.840 1.364e-16  
 5698.374 1.2165e-16 
 5699.909 1.396e-16  
 5701.443 1.5206e-16 
 5702.977 1.4814e-16 
 5704.511 1.5249e-16 
 5706.045 1.4004e-16 
 5707.580 1.5319e-16 
 5709.114 1.6011e-16 
 5710.648 1.4895e-16 
 5712.183 1.5596e-16 
 5713.717 1.6135e-16 
 5715.251 1.3461e-16 
 5716.786 1.401e-16  
 5718.320 1.6975e-16 
 5719.854 1.7643e-16 
 5721.389 1.6614e-16 
 5722.923 1.6837e-16 
 5724.457 1.7143e-16 
 5725.992 1.7374e-16 
 5727.526 1.58e-16   
 5729.060 1.3888e-16 
 5730.594 1.5537e-16 
 5732.128 1.5315e-16 
 5733.663 1.3191e-16 
 5735.197 1.3771e-16 
 5736.731 1.5462e-16 
 5738.266 1.4761e-16 
 5739.800 1.4816e-16 
 5741.334 1.4637e-16 
 5742.869 1.5342e-16 
 5744.403 1.6202e-16 
 5745.938 1.5663e-16 
 5747.472 1.5887e-16 
 5749.006 1.5781e-16 
 5750.540 1.5351e-16 
 5752.075 1.4995e-16 
 5753.609 1.4347e-16 
 5755.143 1.3217e-16 
 5756.677 1.4512e-16 
 5758.212 1.6329e-16 
 5759.746 1.5093e-16 
 5761.280 1.3955e-16 
 5762.814 1.5036e-16 
 5764.349 1.5013e-16 
 5765.883 1.5547e-16 
 5767.417 1.5962e-16 
 5768.952 1.4851e-16 
 5770.486 1.5047e-16 
 5772.021 1.5328e-16 
 5773.555 1.5464e-16 
 5775.089 1.5495e-16 
 5776.623 1.4175e-16 
 5778.158 1.3559e-16 
 5779.692 1.5292e-16 
 5781.226 1.5793e-16 
 5782.760 1.4609e-16 
 5784.295 1.4187e-16 
 5785.829 1.4961e-16 
 5787.363 1.555e-16  
 5788.897 1.5383e-16 
 5790.432 1.5078e-16 
 5791.966 1.5577e-16 
 5793.500 1.5859e-16 
 5795.035 1.4147e-16 
 5796.569 1.3603e-16 
 5798.104 1.4584e-16 
 5799.638 1.4935e-16 
 5801.172 1.5406e-16 
 5802.706 1.5887e-16 
 5804.241 1.4808e-16 
 5805.775 1.3828e-16 
 5807.309 1.3931e-16 
 5808.843 1.5183e-16 
 5810.378 1.5793e-16 
 5811.912 1.5524e-16 
 5813.446 1.5656e-16 
 5814.980 1.4698e-16 
 5816.515 1.525e-16  
 5818.049 1.7417e-16 
 5819.583 1.577e-16  
 5821.118 1.5465e-16 
 5822.652 1.5865e-16 
 5824.187 1.5132e-16 
 5825.721 1.6298e-16 
 5827.255 1.6067e-16 
 5828.789 1.438e-16  
 5830.324 1.5615e-16 
 5831.858 1.5098e-16 
 5833.392 1.6122e-16 
 5834.926 1.5692e-16 
 5836.461 1.4294e-16 
 5837.995 1.5236e-16 
 5839.529 1.6436e-16 
 5841.063 1.5985e-16 
 5842.598 1.6568e-16 
 5844.132 1.6615e-16 
 5845.667 1.5602e-16 
 5847.201 1.5424e-16 
 5848.735 1.5866e-16 
 5850.270 1.555e-16  
 5851.804 1.5054e-16 
 5853.338 1.6209e-16 
 5854.872 1.6619e-16 
 5856.407 1.7086e-16 
 5857.941 1.5277e-16 
 5859.475 1.5011e-16 
 5861.009 1.5262e-16 
 5862.544 1.4309e-16 
 5864.078 1.6007e-16 
 5865.612 1.6329e-16 
 5867.146 1.7617e-16 
 5868.681 1.5605e-16 
 5870.215 1.4636e-16 
 5871.750 1.6476e-16 
 5873.284 1.6469e-16 
 5874.818 1.4746e-16 
 5876.353 1.5168e-16 
 5877.887 1.6121e-16 
 5879.421 1.6151e-16 
 5880.955 1.4256e-16 
 5882.490 1.5078e-16 
 5884.024 1.5736e-16 
 5885.558 1.286e-16  
 5887.092 1.568e-16  
 5888.627 1.7903e-16 
 5890.161 1.0935e-16 
 5891.695 1.2033e-16 
 5893.229 1.5987e-16 
 5894.764 1.4401e-16 
 5896.298 1.1248e-16 
 5897.833 1.1995e-16 
 5899.367 1.2211e-16 
 5900.901 1.3534e-16 
 5902.436 1.3395e-16 
 5903.970 1.4079e-16 
 5905.504 1.3631e-16 
 5907.038 1.2953e-16 
 5908.573 1.1761e-16 
 5910.107 1.3328e-16 
 5911.641 1.3649e-16 
 5913.175 1.5715e-16 
 5914.710 1.6671e-16 
 5916.244 1.7091e-16 
 5917.778 1.6226e-16 
 5919.312 1.3462e-16 
 5920.847 1.3852e-16 
 5922.381 1.5142e-16 
 5923.916 1.421e-16  
 5925.450 1.4631e-16 
 5926.984 1.6172e-16 
 5928.519 1.5389e-16 
 5930.053 1.4737e-16 
 5931.587 1.5249e-16 
 5933.121 1.5224e-16 
 5934.656 1.4247e-16 
 5936.190 1.4458e-16 
 5937.724 1.4409e-16 
 5939.258 1.399e-16  
 5940.793 1.4107e-16 
 5942.327 1.3496e-16 
 5943.861 1.361e-16  
 5945.396 1.5452e-16 
 5946.930 1.7218e-16 
 5948.464 1.5725e-16 
 5949.999 1.4331e-16 
 5951.533 1.4148e-16 
 5953.067 1.3755e-16 
 5954.602 1.4488e-16 
 5956.136 1.5181e-16 
 5957.670 1.4921e-16 
 5959.204 1.54e-16   
 5960.739 1.5475e-16 
 5962.273 1.5607e-16 
 5963.807 1.4326e-16 
 5965.341 1.2856e-16 
 5966.876 1.3964e-16 
 5968.410 1.4064e-16 
 5969.944 1.3608e-16 
 5971.479 1.4361e-16 
 5973.013 1.5811e-16 
 5974.547 1.6707e-16 
 5976.082 1.6441e-16 
 5977.616 1.4816e-16 
 5979.150 1.364e-16  
 5980.685 1.464e-16  
 5982.219 1.4821e-16 
 5983.753 1.4072e-16 
 5985.288 1.5138e-16 
 5986.822 1.5711e-16 
 5988.356 1.5018e-16 
 5989.890 1.452e-16  
 5991.424 1.4296e-16 
 5992.959 1.6129e-16 
 5994.493 1.668e-16  
 5996.027 1.644e-16  
 5997.562 1.6629e-16 
 5999.096 1.5717e-16 
 6000.630 1.5896e-16 
 6002.165 1.6791e-16 
 6003.699 1.708e-16  
 6005.233 1.6751e-16 
 6006.768 1.6485e-16 
 6008.302 1.5499e-16 
 6009.836 1.5254e-16 
 6011.371 1.4321e-16 
 6012.905 1.4542e-16 
 6014.439 1.4803e-16 
 6015.973 1.4104e-16 
 6017.507 1.4144e-16 
 6019.042 1.6321e-16 
 6020.576 1.579e-16  
 6022.110 1.3871e-16 
 6023.645 1.568e-16  
 6025.179 1.676e-16  
 6026.713 1.7255e-16 
 6028.248 1.6094e-16 
 6029.782 1.3892e-16 
 6031.316 1.3611e-16 
 6032.851 1.3728e-16 
 6034.385 1.4653e-16 
 6035.919 1.5036e-16 
 6037.454 1.4909e-16 
 6038.988 1.3436e-16 
 6040.522 1.5176e-16 
 6042.056 1.5573e-16 
 6043.590 1.4789e-16 
 6045.125 1.4575e-16 
 6046.659 1.3957e-16 
 6048.193 1.4749e-16 
 6049.728 1.5452e-16 
 6051.262 1.4969e-16 
 6052.796 1.4258e-16 
 6054.331 1.5079e-16 
 6055.865 1.4742e-16 
 6057.399 1.415e-16  
 6058.934 1.4756e-16 
 6060.468 1.32e-16   
 6062.002 1.239e-16  
 6063.537 1.3224e-16 
 6065.071 1.4226e-16 
 6066.605 1.3053e-16 
 6068.139 1.199e-16  
 6069.674 1.3295e-16 
 6071.208 1.369e-16  
 6072.742 1.4126e-16 
 6074.276 1.4747e-16 
 6075.811 1.3195e-16 
 6077.345 1.3992e-16 
 6078.879 1.4019e-16 
 6080.414 1.2746e-16 
 6081.948 1.343e-16  
 6083.482 1.2773e-16 
 6085.017 1.3032e-16 
 6086.551 1.4163e-16 
 6088.085 1.4311e-16 
 6089.620 1.1917e-16 
 6091.154 1.1818e-16 
 6092.688 1.3671e-16 
 6094.222 1.5706e-16 
 6095.757 1.5564e-16 
 6097.291 1.523e-16  
 6098.825 1.5186e-16 
 6100.359 1.5014e-16 
 6101.894 1.6538e-16 
 6103.428 1.5479e-16 
 6104.962 1.4589e-16 
 6106.497 1.4767e-16 
 6108.031 1.5047e-16 
 6109.565 1.4399e-16 
 6111.100 1.4579e-16 
 6112.634 1.3656e-16 
 6114.168 1.2914e-16 
 6115.703 1.3499e-16 
 6117.237 1.6508e-16 
 6118.771 1.6349e-16 
 6120.305 1.4855e-16 
 6121.840 1.492e-16  
 6123.374 1.426e-16  
 6124.908 1.3299e-16 
 6126.442 1.3416e-16 
 6127.977 1.4985e-16 
 6129.511 1.4738e-16 
 6131.045 1.4264e-16 
 6132.580 1.4133e-16 
 6134.114 1.4339e-16 
 6135.648 1.3466e-16 
 6137.183 1.4084e-16 
 6138.717 1.5027e-16 
 6140.251 1.3936e-16 
 6141.786 1.3819e-16 
 6143.320 1.5583e-16 
 6144.854 1.5085e-16 
 6146.388 1.5007e-16 
 6147.923 1.4064e-16 
 6149.457 1.333e-16  
 6150.991 1.3715e-16 
 6152.525 1.3589e-16 
 6154.060 1.4351e-16 
 6155.594 1.4892e-16 
 6157.128 1.539e-16  
 6158.663 1.3491e-16 
 6160.197 1.3578e-16 
 6161.731 1.4165e-16 
 6163.266 1.4324e-16 
 6164.800 1.5096e-16 
 6166.334 1.4802e-16 
 6167.869 1.5254e-16 
 6169.403 1.525e-16  
 6170.937 1.5482e-16 
 6172.471 1.5851e-16 
 6174.006 1.4415e-16 
 6175.540 1.5228e-16 
 6177.074 1.5869e-16 
 6178.608 1.4164e-16 
 6180.143 1.4301e-16 
 6181.677 1.5355e-16 
 6183.211 1.4954e-16 
 6184.746 1.451e-16  
 6186.280 1.378e-16  
 6187.814 1.4599e-16 
 6189.349 1.4175e-16 
 6190.883 1.4834e-16 
 6192.417 1.5499e-16 
 6193.952 1.3835e-16 
 6195.486 1.412e-16  
 6197.020 1.4731e-16 
 6198.554 1.4182e-16 
 6200.089 1.512e-16  
 6201.623 1.5454e-16 
 6203.157 1.3855e-16 
 6204.691 1.4083e-16 
 6206.226 1.3085e-16 
 6207.760 1.2045e-16 
 6209.294 1.4308e-16 
 6210.829 1.4461e-16 
 6212.363 1.358e-16  
 6213.897 1.3567e-16 
 6215.432 1.4936e-16 
 6216.966 1.5005e-16 
 6218.500 1.2691e-16 
 6220.035 1.3567e-16 
 6221.569 1.4258e-16 
 6223.103 1.382e-16  
 6224.637 1.4654e-16 
 6226.172 1.6074e-16 
 6227.706 1.5419e-16 
 6229.240 1.4063e-16 
 6230.774 1.3746e-16 
 6232.309 1.2895e-16 
 6233.843 1.3246e-16 
 6235.377 1.4882e-16 
 6236.912 1.4155e-16 
 6238.446 1.2222e-16 
 6239.980 1.2373e-16 
 6241.515 1.2964e-16 
 6243.049 1.357e-16  
 6244.583 1.3987e-16 
 6246.118 1.3668e-16 
 6247.652 1.3543e-16 
 6249.186 1.4249e-16 
 6250.720 1.5032e-16 
 6252.255 1.4096e-16 
 6253.789 1.4156e-16 
 6255.323 1.4879e-16 
 6256.857 1.4238e-16 
 6258.392 1.4175e-16 
 6259.926 1.2482e-16 
 6261.460 1.026e-16  
 6262.995 1.1611e-16 
 6264.529 1.2732e-16 
 6266.063 1.1596e-16 
 6267.598 1.094e-16  
 6269.132 1.187e-16  
 6270.667 1.3822e-16 
 6272.201 1.3792e-16 
 6273.735 1.2583e-16 
 6275.269 1.2052e-16 
 6276.803 1.2498e-16 
 6278.338 1.298e-16  
 6279.872 1.3413e-16 
 6281.406 1.3553e-16 
 6282.940 1.3413e-16 
 6284.475 1.414e-16  
 6286.009 1.4177e-16 
 6287.543 1.4134e-16 
 6289.078 1.5622e-16 
 6290.612 1.4635e-16 
 6292.146 1.2948e-16 
 6293.681 1.3855e-16 
 6295.215 1.3887e-16 
 6296.750 1.2633e-16 
 6298.284 1.2935e-16 
 6299.818 1.4163e-16 
 6301.352 1.4141e-16 
 6302.886 1.2487e-16 
 6304.421 1.2485e-16 
 6305.955 1.4081e-16 
 6307.489 1.3466e-16 
 6309.023 1.2564e-16 
 6310.558 1.2439e-16 
 6312.092 1.2956e-16 
 6313.626 1.3371e-16 
 6315.161 1.3603e-16 
 6316.695 1.4378e-16 
 6318.229 1.4918e-16 
 6319.764 1.4839e-16 
 6321.298 1.3853e-16 
 6322.833 1.4366e-16 
 6324.367 1.5697e-16 
 6325.901 1.5287e-16 
 6327.435 1.4646e-16 
 6328.969 1.4913e-16 
 6330.504 1.5009e-16 
 6332.038 1.487e-16  
 6333.572 1.4172e-16 
 6335.106 1.439e-16  
 6336.641 1.5817e-16 
 6338.175 1.5068e-16 
 6339.709 1.3772e-16 
 6341.244 1.3252e-16 
 6342.778 1.4156e-16 
 6344.312 1.4856e-16 
 6345.847 1.4023e-16 
 6347.381 1.4785e-16 
 6348.916 1.5191e-16 
 6350.450 1.4139e-16 
 6351.984 1.3896e-16 
 6353.518 1.5078e-16 
 6355.053 1.553e-16  
 6356.587 1.4619e-16 
 6358.121 1.4662e-16 
 6359.655 1.6098e-16 
 6361.189 1.5322e-16 
 6362.724 1.488e-16  
 6364.258 1.545e-16  
 6365.792 1.6308e-16 
 6367.327 1.597e-16  
 6368.861 1.5024e-16 
 6370.396 1.4691e-16 
 6371.930 1.4463e-16 
 6373.464 1.4295e-16 
 6374.999 1.4377e-16 
 6376.533 1.3328e-16 
 6378.067 1.1706e-16 
 6379.601 1.4011e-16 
 6381.136 1.5298e-16 
 6382.670 1.3482e-16 
 6384.204 1.2335e-16 
 6385.738 1.3024e-16 
 6387.272 1.4379e-16 
 6388.807 1.4718e-16 
 6390.341 1.3636e-16 
 6391.875 1.2447e-16 
 6393.410 1.3323e-16 
 6394.944 1.3922e-16 
 6396.479 1.5264e-16 
 6398.013 1.5707e-16 
 6399.547 1.3723e-16 
 6401.082 1.4011e-16 
 6402.616 1.5552e-16 
 6404.150 1.5008e-16 
 6405.684 1.4786e-16 
 6407.219 1.5624e-16 
 6408.753 1.6149e-16 
 6410.287 1.5181e-16 
 6411.821 1.5508e-16 
 6413.355 1.6152e-16 
 6414.890 1.6037e-16 
 6416.424 1.6292e-16 
 6417.958 1.5794e-16 
 6419.493 1.4366e-16 
 6421.027 1.3797e-16 
 6422.562 1.478e-16  
 6424.096 1.4767e-16 
 6425.630 1.4818e-16 
 6427.165 1.6427e-16 
 6428.699 1.6165e-16 
 6430.233 1.5643e-16 
 6431.767 1.4782e-16 
 6433.302 1.4826e-16 
 6434.836 1.5772e-16 
 6436.370 1.5237e-16 
 6437.904 1.3228e-16 
 6439.439 1.2813e-16 
 6440.973 1.5046e-16 
 6442.507 1.5278e-16 
 6444.042 1.3865e-16 
 6445.576 1.4279e-16 
 6447.110 1.5148e-16 
 6448.645 1.4644e-16 
 6450.179 1.4445e-16 
 6451.713 1.4392e-16 
 6453.248 1.3996e-16 
 6454.782 1.3223e-16 
 6456.316 1.3948e-16 
 6457.850 1.4034e-16 
 6459.385 1.3417e-16 
 6460.919 1.3299e-16 
 6462.453 1.3138e-16 
 6463.987 1.2858e-16 
 6465.522 1.4621e-16 
 6467.056 1.4966e-16 
 6468.590 1.3544e-16 
 6470.125 1.3525e-16 
 6471.659 1.4669e-16 
 6473.193 1.3969e-16 
 6474.728 1.4839e-16 
 6476.262 1.577e-16  
 6477.796 1.4445e-16 
 6479.331 1.4855e-16 
 6480.865 1.51e-16   
 6482.399 1.4822e-16 
 6483.933 1.4636e-16 
 6485.468 1.5269e-16 
 6487.002 1.4064e-16 
 6488.536 1.4535e-16 
 6490.070 1.5842e-16 
 6491.605 1.4152e-16 
 6493.139 1.3829e-16 
 6494.673 1.5105e-16 
 6496.208 1.486e-16  
 6497.742 1.4391e-16 
 6499.276 1.4939e-16 
 6500.811 1.5663e-16 
 6502.345 1.4156e-16 
 6503.879 1.3098e-16 
 6505.414 1.4349e-16 
 6506.948 1.4167e-16 
 6508.482 1.4244e-16 
 6510.016 1.5046e-16 
 6511.551 1.5129e-16 
 6513.085 1.3639e-16 
 6514.619 1.4765e-16 
 6516.153 1.557e-16  
 6517.688 1.6016e-16 
 6519.222 1.4776e-16 
 6520.756 1.3603e-16 
 6522.291 1.4233e-16 
 6523.825 1.5095e-16 
 6525.359 1.5128e-16 
 6526.894 1.4284e-16 
 6528.428 1.5166e-16 
 6529.962 1.6557e-16 
 6531.497 1.4791e-16 
 6533.031 1.413e-16  
 6534.565 1.5429e-16 
 6536.099 1.4725e-16 
 6537.634 1.3452e-16 
 6539.168 1.4069e-16 
 6540.702 1.5243e-16 
 6542.236 1.5027e-16 
 6543.771 1.3991e-16 
 6545.305 1.3372e-16 
 6546.839 1.3623e-16 
 6548.374 1.4461e-16 
 6549.908 1.6649e-16 
 6551.442 1.6927e-16 
 6552.977 1.5282e-16 
 6554.511 1.6859e-16 
 6556.045 1.6736e-16 
 6557.580 1.565e-16  
 6559.114 1.6681e-16 
 6560.648 1.6227e-16 
 6562.182 1.6614e-16 
 6563.717 1.7421e-16 
 6565.251 1.691e-16  
 6566.785 1.6478e-16 
 6568.319 1.5797e-16 
 6569.854 1.4894e-16 
 6571.388 1.5572e-16 
 6572.922 1.5959e-16 
 6574.457 1.5444e-16 
 6575.991 1.5098e-16 
 6577.525 1.4842e-16 
 6579.060 1.5076e-16 
 6580.594 1.4306e-16 
 6582.128 1.3063e-16 
 6583.663 1.3134e-16 
 6585.197 1.4268e-16 
 6586.731 1.4517e-16 
 6588.265 1.4481e-16 
 6589.800 1.3996e-16 
 6591.334 1.4133e-16 
 6592.868 1.5098e-16 
 6594.402 1.5221e-16 
 6595.937 1.4153e-16 
 6597.471 1.4426e-16 
 6599.005 1.531e-16  
 6600.540 1.4956e-16 
 6602.074 1.504e-16  
 6603.608 1.4282e-16 
 6605.143 1.4342e-16 
 6606.677 1.4595e-16 
 6608.211 1.352e-16  
 6609.746 1.3493e-16 
 6611.280 1.4421e-16 
 6612.814 1.4447e-16 
 6614.348 1.3001e-16 
 6615.883 1.2659e-16 
 6617.417 1.328e-16  
 6618.951 1.379e-16  
 6620.485 1.3577e-16 
 6622.020 1.3781e-16 
 6623.554 1.3689e-16 
 6625.088 1.4003e-16 
 6626.623 1.2933e-16 
 6628.157 1.3582e-16 
 6629.691 1.3934e-16 
 6631.226 1.327e-16  
 6632.760 1.3346e-16 
 6634.294 1.4094e-16 
 6635.829 1.3966e-16 
 6637.363 1.3948e-16 
 6638.897 1.3264e-16 
 6640.431 1.2227e-16 
 6641.966 1.3031e-16 
 6643.500 1.3992e-16 
 6645.034 1.3961e-16 
 6646.568 1.4183e-16 
 6648.103 1.3243e-16 
 6649.637 1.3049e-16 
 6651.171 1.2989e-16 
 6652.706 1.3341e-16 
 6654.240 1.2895e-16 
 6655.774 1.2948e-16 
 6657.309 1.3077e-16 
 6658.843 1.3179e-16 
 6660.377 1.3897e-16 
 6661.912 1.5168e-16 
 6663.446 1.5223e-16 
 6664.980 1.5098e-16 
 6666.515 1.3869e-16 
 6668.049 1.3015e-16 
 6669.583 1.2883e-16 
 6671.117 1.3229e-16 
 6672.651 1.4254e-16 
 6674.186 1.2077e-16 
 6675.720 1.1785e-16 
 6677.254 1.2662e-16 
 6678.789 1.3495e-16 
 6680.323 1.3575e-16 
 6681.857 1.3753e-16 
 6683.392 1.4551e-16 
 6684.926 1.3484e-16 
 6686.460 1.3934e-16 
 6687.995 1.4691e-16 
 6689.529 1.4025e-16 
 6691.063 1.4789e-16 
 6692.598 1.3972e-16 
 6694.132 1.4433e-16 
 6695.666 1.4309e-16 
 6697.200 1.3099e-16 
 6698.734 1.3665e-16 
 6700.269 1.4817e-16 
 6701.803 1.442e-16  
 6703.337 1.4311e-16 
 6704.872 1.4317e-16 
 6706.406 1.4019e-16 
 6707.940 1.3384e-16 
 6709.475 1.2273e-16 
 6711.009 1.3306e-16 
 6712.543 1.4489e-16 
 6714.078 1.3586e-16 
 6715.612 1.3939e-16 
 6717.146 1.5214e-16 
 6718.681 1.4888e-16 
 6720.215 1.4323e-16 
 6721.749 1.4675e-16 
 6723.283 1.4594e-16 
 6724.818 1.4046e-16 
 6726.352 1.5119e-16 
 6727.886 1.4965e-16 
 6729.420 1.4234e-16 
 6730.955 1.437e-16  
 6732.489 1.4169e-16 
 6734.023 1.3757e-16 
 6735.558 1.4081e-16 
 6737.092 1.3669e-16 
 6738.626 1.2687e-16 
 6740.161 1.4177e-16 
 6741.695 1.3852e-16 
 6743.229 1.248e-16  
 6744.764 1.2416e-16 
 6746.298 1.3173e-16 
 6747.832 1.3554e-16 
 6749.366 1.3289e-16 
 6750.901 1.3003e-16 
 6752.435 1.3343e-16 
 6753.969 1.3444e-16 
 6755.503 1.4299e-16 
 6757.038 1.4322e-16 
 6758.572 1.2676e-16 
 6760.106 1.3132e-16 
 6761.641 1.3203e-16 
 6763.175 1.312e-16  
 6764.709 1.2801e-16 
 6766.244 1.3536e-16 
 6767.778 1.4084e-16 
 6769.312 1.263e-16  
 6770.847 1.2877e-16 
 6772.381 1.3272e-16 
 6773.915 1.3156e-16 
 6775.449 1.3567e-16 
 6776.984 1.3173e-16 
 6778.518 1.2804e-16 
 6780.052 1.3242e-16 
 6781.586 1.3199e-16 
 6783.121 1.3212e-16 
 6784.655 1.3517e-16 
 6786.189 1.4001e-16 
 6787.724 1.3075e-16 
 6789.258 1.2612e-16 
 6790.792 1.3431e-16 
 6792.327 1.3424e-16 
 6793.861 1.3351e-16 
 6795.395 1.3451e-16 
 6796.930 1.4236e-16 
 6798.464 1.3044e-16 
 6799.998 1.3132e-16 
 6801.532 1.4493e-16 
 6803.067 1.4046e-16 
 6804.601 1.358e-16  
 6806.135 1.3634e-16 
 6807.669 1.389e-16  
 6809.204 1.3822e-16 
 6810.738 1.254e-16  
 6812.272 1.3382e-16 
 6813.807 1.3214e-16 
 6815.341 1.3315e-16 
 6816.875 1.3789e-16 
 6818.410 1.3949e-16 
 6819.944 1.3277e-16 
 6821.478 1.3638e-16 
 6823.013 1.3988e-16 
 6824.547 1.4186e-16 
 6826.081 1.4593e-16 
 6827.615 1.4329e-16 
 6829.150 1.3263e-16 
 6830.684 1.2958e-16 
 6832.218 1.3298e-16 
 6833.752 1.2447e-16 
 6835.287 1.4318e-16 
 6836.821 1.3578e-16 
 6838.355 1.2372e-16 
 6839.890 1.2892e-16 
 6841.424 1.3077e-16 
 6842.958 1.2965e-16 
 6844.493 1.3059e-16 
 6846.027 1.3139e-16 
 6847.561 1.2697e-16 
 6849.096 1.347e-16  
 6850.630 1.3812e-16 
 6852.164 1.3731e-16 
 6853.698 1.3585e-16 
 6855.233 1.3772e-16 
 6856.767 1.2844e-16 
 6858.301 1.2492e-16 
 6859.835 1.3159e-16 
 6861.370 1.4147e-16 
 6862.904 1.4025e-16 
 6864.438 1.2511e-16 
 6865.973 1.1668e-16 
 6867.507 1.2627e-16 
 6869.042 1.4625e-16 
 6870.576 1.358e-16  
 6872.110 1.3137e-16 
 6873.644 1.4981e-16 
 6875.179 1.3403e-16 
 6876.713 1.3361e-16 
 6878.247 1.4156e-16 
 6879.781 1.5237e-16 
 6881.316 1.5569e-16 
 6882.850 1.3866e-16 
 6884.384 1.3987e-16 
 6885.918 1.3997e-16 
 6887.453 1.3261e-16 
 6888.987 1.3113e-16 
 6890.521 1.3572e-16 
 6892.056 1.398e-16  
 6893.590 1.3381e-16 
 6895.125 1.4289e-16 
 6896.659 1.3679e-16 
 6898.193 1.3458e-16 
 6899.727 1.434e-16  
 6901.262 1.3939e-16 
 6902.796 1.3443e-16 
 6904.330 1.4131e-16 
 6905.864 1.3389e-16 
 6907.399 1.3868e-16 
 6908.933 1.5555e-16 
 6910.467 1.3882e-16 
 6912.001 1.2919e-16 
 6913.536 1.3867e-16 
 6915.070 1.3048e-16 
 6916.604 1.2011e-16 
 6918.139 1.3639e-16 
 6919.673 1.3613e-16 
 6921.208 1.222e-16  
 6922.742 1.4546e-16 
 6924.276 1.5054e-16 
 6925.810 1.3128e-16 
 6927.345 1.2582e-16 
 6928.879 1.3822e-16 
 6930.413 1.4162e-16 
 6931.947 1.3579e-16 
 6933.482 1.4137e-16 
 6935.016 1.4406e-16 
 6936.550 1.3567e-16 
 6938.084 1.3845e-16 
 6939.619 1.5486e-16 
 6941.153 1.4981e-16 
 6942.688 1.3906e-16 
 6944.222 1.307e-16  
 6945.756 1.371e-16  
 6947.291 1.3364e-16 
 6948.825 1.3601e-16 
 6950.359 1.322e-16  
 6951.894 1.3409e-16 
 6953.428 1.4487e-16 
 6954.962 1.3528e-16 
 6956.496 1.2903e-16 
 6958.030 1.3736e-16 
 6959.565 1.4334e-16 
 6961.099 1.3337e-16 
 6962.633 1.3019e-16 
 6964.167 1.3661e-16 
 6965.702 1.3649e-16 
 6967.236 1.4422e-16 
 6968.771 1.4671e-16 
 6970.305 1.3089e-16 
 6971.839 1.2827e-16 
 6973.374 1.3517e-16 
 6974.908 1.4359e-16 
 6976.442 1.4603e-16 
 6977.977 1.405e-16  
 6979.511 1.3701e-16 
 6981.045 1.3351e-16 
 6982.579 1.4492e-16 
 6984.113 1.4596e-16 
 6985.648 1.3595e-16 
 6987.182 1.3695e-16 
 6988.716 1.4024e-16 
 6990.250 1.3667e-16 
 6991.785 1.3791e-16 
 6993.319 1.421e-16  
 6994.854 1.3705e-16 
 6996.388 1.3447e-16 
 6997.922 1.2682e-16 
 6999.457 1.3023e-16 
 7000.991 1.2935e-16 
 7002.525 1.3352e-16 
 7004.060 1.2946e-16 
 7005.594 1.2612e-16 
 7007.128 1.3433e-16 
 7008.662 1.4597e-16 
 7010.196 1.4664e-16 
 7011.731 1.3739e-16 
 7013.265 1.3114e-16 
 7014.799 1.2028e-16 
 7016.333 1.2998e-16 
 7017.868 1.3958e-16 
 7019.402 1.3271e-16 
 7020.937 1.3573e-16 
 7022.471 1.3694e-16 
 7024.005 1.3029e-16 
 7025.540 1.2957e-16 
 7027.074 1.4105e-16 
 7028.608 1.3829e-16 
 7030.143 1.3891e-16 
 7031.677 1.383e-16  
 7033.211 1.3726e-16 
 7034.745 1.3611e-16 
 7036.280 1.3799e-16 
 7037.814 1.3466e-16 
 7039.348 1.2647e-16 
 7040.882 1.3163e-16 
 7042.417 1.4198e-16 
 7043.951 1.4001e-16 
 7045.485 1.4546e-16 
 7047.020 1.4551e-16 
 7048.554 1.3696e-16 
 7050.088 1.316e-16  
 7051.623 1.3404e-16 
 7053.157 1.3394e-16 
 7054.691 1.3038e-16 
 7056.226 1.3742e-16 
 7057.760 1.3954e-16 
 7059.294 1.4297e-16 
 7060.828 1.4754e-16 
 7062.363 1.3556e-16 
 7063.897 1.3345e-16 
 7065.431 1.4239e-16 
 7066.965 1.3203e-16 
 7068.500 1.2642e-16 
 7070.034 1.3263e-16 
 7071.568 1.4008e-16 
 7073.103 1.3296e-16 
 7074.637 1.282e-16  
 7076.171 1.3073e-16 
 7077.706 1.2744e-16 
 7079.240 1.3291e-16 
 7080.774 1.473e-16  
 7082.309 1.4507e-16 
 7083.843 1.3803e-16 
 7085.377 1.4111e-16 
 7086.911 1.5182e-16 
 7088.446 1.4977e-16 
 7089.980 1.4029e-16 
 7091.514 1.3699e-16 
 7093.048 1.3576e-16 
 7094.583 1.3001e-16 
 7096.117 1.3104e-16 
 7097.651 1.3377e-16 
 7099.186 1.2906e-16 
 7100.720 1.379e-16  
 7102.254 1.4023e-16 
 7103.789 1.2816e-16 
 7105.323 1.1978e-16 
 7106.857 1.2642e-16 
 7108.392 1.2999e-16 
 7109.926 1.3124e-16 
 7111.460 1.4324e-16 
 7112.994 1.4049e-16 
 7114.529 1.2792e-16 
 7116.063 1.3484e-16 
 7117.597 1.3836e-16 
 7119.131 1.3362e-16 
 7120.666 1.385e-16  
 7122.200 1.3486e-16 
 7123.734 1.3029e-16 
 7125.269 1.3249e-16 
 7126.803 1.3247e-16 
 7128.337 1.2915e-16 
 7129.872 1.3274e-16 
 7131.406 1.3207e-16 
 7132.940 1.2655e-16 
 7134.475 1.1727e-16 
 7136.009 1.1627e-16 
 7137.543 1.1557e-16 
 7139.077 1.0813e-16 
 7140.612 1.1127e-16 
 7142.146 1.1436e-16 
 7143.680 1.1439e-16 
 7145.214 1.2647e-16 
 7146.749 1.3466e-16 
 7148.283 1.2572e-16 
 7149.817 1.1334e-16 
 7151.352 1.133e-16  
 7152.886 1.2158e-16 
 7154.420 1.3072e-16 
 7155.955 1.4169e-16 
 7157.489 1.4261e-16 
 7159.023 1.3028e-16 
 7160.558 1.3325e-16 
 7162.092 1.3314e-16 
 7163.626 1.2823e-16 
 7165.160 1.3885e-16 
 7166.695 1.384e-16  
 7168.229 1.313e-16  
 7169.763 1.3804e-16 
 7171.297 1.4134e-16 
 7172.832 1.3576e-16 
 7174.366 1.2837e-16 
 7175.900 1.2877e-16 
 7177.435 1.3138e-16 
 7178.969 1.3287e-16 
 7180.503 1.3534e-16 
 7182.038 1.346e-16  
 7183.572 1.3943e-16 
 7185.106 1.3688e-16 
 7186.641 1.2766e-16 
 7188.175 1.3364e-16 
 7189.709 1.4169e-16 
 7191.243 1.3998e-16 
 7192.778 1.3001e-16 
 7194.312 1.352e-16  
 7195.846 1.454e-16  
 7197.380 1.3338e-16 
 7198.915 1.3267e-16 
 7200.449 1.4377e-16 
 7201.983 1.3475e-16 
 7203.518 1.248e-16  
 7205.052 1.3188e-16 
 7206.586 1.3475e-16 
 7208.121 1.3135e-16 
 7209.655 1.3353e-16 
 7211.189 1.3575e-16 
 7212.724 1.3331e-16 
 7214.258 1.3339e-16 
 7215.792 1.3504e-16 
 7217.326 1.358e-16  
 7218.861 1.3833e-16 
 7220.395 1.3325e-16 
 7221.929 1.2396e-16 
 7223.463 1.2823e-16 
 7224.998 1.365e-16  
 7226.532 1.3356e-16 
 7228.066 1.2658e-16 
 7229.601 1.2854e-16 
 7231.135 1.3442e-16 
 7232.669 1.3398e-16 
 7234.204 1.4125e-16 
 7235.738 1.4002e-16 
 7237.272 1.2698e-16 
 7238.807 1.3617e-16 
 7240.341 1.5298e-16 
 7241.875 1.3894e-16 
 7243.409 1.2203e-16 
 7244.944 1.2561e-16 
 7246.478 1.2686e-16 
 7248.012 1.2593e-16 
 7249.546 1.2392e-16 
 7251.081 1.1958e-16 
 7252.615 1.2552e-16 
 7254.149 1.3193e-16 
 7255.684 1.3119e-16 
 7257.218 1.2842e-16 
 7258.752 1.2923e-16 
 7260.287 1.2842e-16 
 7261.821 1.2242e-16 
 7263.355 1.2306e-16 
 7264.890 1.3432e-16 
 7266.424 1.293e-16  
 7267.958 1.2427e-16 
 7269.492 1.2478e-16 
 7271.027 1.3273e-16 
 7272.561 1.5197e-16 
 7274.095 1.4791e-16 
 7275.629 1.3109e-16 
 7277.164 1.2386e-16 
 7278.698 1.2172e-16 
 7280.232 1.3155e-16 
 7281.767 1.2539e-16 
 7283.301 1.2226e-16 
 7284.835 1.3777e-16 
 7286.370 1.3499e-16 
 7287.904 1.277e-16  
 7289.438 1.407e-16  
 7290.973 1.4089e-16 
 7292.507 1.315e-16  
 7294.041 1.4243e-16 
 7295.575 1.4662e-16 
 7297.110 1.3906e-16 
 7298.644 1.3551e-16 
 7300.178 1.3134e-16 
 7301.712 1.3143e-16 
 7303.247 1.3305e-16 
 7304.781 1.3261e-16 
 7306.315 1.2605e-16 
 7307.850 1.2938e-16 
 7309.384 1.3687e-16 
 7310.918 1.3078e-16 
 7312.453 1.3435e-16 
 7313.987 1.3974e-16 
 7315.521 1.3891e-16 
 7317.056 1.3902e-16 
 7318.590 1.3552e-16 
 7320.124 1.2664e-16 
 7321.659 1.3013e-16 
 7323.193 1.3307e-16 
 7324.727 1.3392e-16 
 7326.261 1.3258e-16 
 7327.795 1.2922e-16 
 7329.330 1.479e-16  
 7330.864 1.4556e-16 
 7332.398 1.336e-16  
 7333.933 1.33e-16   
 7335.467 1.3915e-16 
 7337.001 1.5089e-16 
 7338.536 1.404e-16  
 7340.070 1.3454e-16 
 7341.604 1.4438e-16 
 7343.139 1.1641e-16 
 7344.673 1.1201e-16 
 7346.207 1.1715e-16 
 7347.742 1.3045e-16 
 7349.276 1.3775e-16 
 7350.810 1.3196e-16 
 7352.344 1.3952e-16 
 7353.878 1.4143e-16 
 7355.413 1.4456e-16 
 7356.947 1.2892e-16 
 7358.481 1.2646e-16 
 7360.016 1.3323e-16 
 7361.550 1.3179e-16 
 7363.084 1.3075e-16 
 7364.619 1.412e-16  
 7366.153 1.4017e-16 
 7367.688 1.1201e-16 
 7369.222 1.1917e-16 
 7370.756 1.2557e-16 
 7372.290 1.2489e-16 
 7373.825 1.2698e-16 
 7375.359 1.2071e-16 
 7376.893 1.299e-16  
 7378.427 1.4269e-16 
 7379.961 1.3122e-16 
 7381.496 1.1974e-16 
 7383.030 1.185e-16  
 7384.564 1.3544e-16 
 7386.099 1.4377e-16 
 7387.633 1.3222e-16 
 7389.167 1.313e-16  
 7390.702 1.32e-16   
 7392.236 1.3631e-16 
 7393.771 1.4323e-16 
 7395.305 1.3021e-16 
 7396.839 1.3331e-16 
 7398.373 1.4531e-16 
 7399.908 1.2441e-16 
 7401.442 9.301e-17  
 7402.976 9.3323e-17 
 7404.510 1.0862e-16 
 7406.045 1.2689e-16 
 7407.579 1.4155e-16 
 7409.113 1.4031e-16 
 7410.647 1.3464e-16 
 7412.182 1.4132e-16 
 7413.716 1.4181e-16 
 7415.250 1.2701e-16 
 7416.785 1.226e-16  
 7418.319 1.2961e-16 
 7419.854 1.2636e-16 
 7421.388 1.2399e-16 
 7422.922 1.346e-16  
 7424.456 1.4925e-16 
 7425.991 1.5082e-16 
 7427.525 1.2226e-16 
 7429.059 1.2354e-16 
 7430.593 1.4135e-16 
 7432.128 1.3034e-16 
 7433.662 1.2517e-16 
 7435.196 1.1721e-16 
 7436.730 1.2306e-16 
 7438.265 1.3094e-16 
 7439.799 1.2198e-16 
 7441.333 1.268e-16  
 7442.868 1.2841e-16 
 7444.402 1.2947e-16 
 7445.937 1.2866e-16 
 7447.471 1.3574e-16 
 7449.005 1.3262e-16 
 7450.539 1.3495e-16 
 7452.074 1.3767e-16 
 7453.608 1.4149e-16 
 7455.142 1.3417e-16 
 7456.676 1.2895e-16 
 7458.211 1.3158e-16 
 7459.745 1.3427e-16 
 7461.279 1.4003e-16 
 7462.813 1.3783e-16 
 7464.348 1.3333e-16 
 7465.882 1.2694e-16 
 7467.417 1.2514e-16 
 7468.951 1.3378e-16 
 7470.485 1.3879e-16 
 7472.020 1.3033e-16 
 7473.554 1.3883e-16 
 7475.088 1.451e-16  
 7476.622 1.3527e-16 
 7478.157 1.3791e-16 
 7479.691 1.4365e-16 
 7481.225 1.3162e-16 
 7482.759 1.3334e-16 
 7484.294 1.3601e-16 
 7485.828 1.3193e-16 
 7487.362 1.3298e-16 
 7488.896 1.2857e-16 
 7490.431 1.3271e-16 
 7491.965 1.4211e-16 
 7493.500 1.3372e-16 
 7495.034 1.2808e-16 
 7496.568 1.3208e-16 
 7498.103 1.2891e-16 
 7499.637 1.1917e-16 
 7501.171 1.2074e-16 
 7502.705 1.3167e-16 
 7504.240 1.2915e-16 
 7505.774 1.2449e-16 
 7507.308 1.2863e-16 
 7508.842 1.2893e-16 
 7510.377 1.2527e-16 
 7511.911 1.3386e-16 
 7513.445 1.323e-16  
 7514.979 1.2397e-16 
 7516.514 1.3615e-16 
 7518.048 1.4747e-16 
 7519.583 1.3552e-16 
 7521.117 1.3218e-16 
 7522.651 1.4648e-16 
 7524.186 1.3087e-16 
 7525.720 1.279e-16  
 7527.254 1.3424e-16 
 7528.788 1.1899e-16 
 7530.323 1.1788e-16 
 7531.857 1.3199e-16 
 7533.391 1.2571e-16 
 7534.925 1.1368e-16 
 7536.460 1.3043e-16 
 7537.994 1.4014e-16 
 7539.528 1.2138e-16 
 7541.062 1.1874e-16 
 7542.597 1.3007e-16 
 7544.131 1.2595e-16 
 7545.666 1.186e-16  
 7547.200 1.28e-16   
 7548.734 1.3345e-16 
 7550.269 1.2429e-16 
 7551.803 1.2328e-16 
 7553.337 1.2555e-16 
 7554.871 1.1813e-16 
 7556.406 1.2904e-16 
 7557.940 1.3562e-16 
 7559.474 1.2036e-16 
 7561.008 1.2131e-16 
 7562.543 1.2879e-16 
 7564.077 1.2699e-16 
 7565.611 1.317e-16  
 7567.146 1.4146e-16 
 7568.680 1.4094e-16 
 7570.214 1.3634e-16 
 7571.749 1.4521e-16 
 7573.283 1.4039e-16 
 7574.817 1.1735e-16 
 7576.352 1.2494e-16 
 7577.886 1.3128e-16 
 7579.420 1.2358e-16 
 7580.954 1.2114e-16 
 7582.489 1.1213e-16 
 7584.023 1.2079e-16 
 7585.557 1.2962e-16 
 7587.091 1.1942e-16 
 7588.626 1.1286e-16 
 7590.160 1.2302e-16 
 7591.694 1.4347e-16 
 7593.229 1.4895e-16 
 7594.763 1.3823e-16 
 7596.297 1.4951e-16 
 7597.832 1.572e-16  
 7599.366 1.2373e-16 
 7600.900 1.0517e-16 
 7602.435 1.2239e-16 
 7603.969 1.2612e-16 
 7605.503 1.1893e-16 
 7607.037 1.2493e-16 
 7608.572 1.1916e-16 
 7610.106 1.1741e-16 
 7611.640 1.2213e-16 
 7613.174 1.3255e-16 
 7614.709 1.2795e-16 
 7616.243 1.2171e-16 
 7617.777 1.2033e-16 
 7619.312 1.2308e-16 
 7620.846 1.3792e-16 
 7622.380 1.3895e-16 
 7623.915 1.1442e-16 
 7625.449 1.2603e-16 
 7626.983 1.4954e-16 
 7628.518 1.2743e-16 
 7630.052 1.3415e-16 
 7631.586 1.4874e-16 
 7633.121 1.3309e-16 
 7634.655 1.2829e-16 
 7636.189 1.3928e-16 
 7637.723 1.3905e-16 
 7639.257 1.2503e-16 
 7640.792 1.3295e-16 
 7642.326 1.2833e-16 
 7643.860 1.2601e-16 
 7645.395 1.3721e-16 
 7646.929 1.3047e-16 
 7648.463 1.127e-16  
 7649.998 1.2616e-16 
 7651.532 1.3433e-16 
 7653.066 1.2455e-16 
 7654.601 1.2226e-16 
 7656.135 1.2316e-16 
 7657.669 1.1686e-16 
 7659.204 1.2522e-16 
 7660.738 1.2942e-16 
 7662.272 1.2048e-16 
 7663.806 1.2972e-16 
 7665.340 1.2809e-16 
 7666.875 1.1875e-16 
 7668.409 1.2003e-16 
 7669.943 1.2182e-16 
 7671.478 1.3347e-16 
 7673.012 1.2408e-16 
 7674.546 1.2133e-16 
 7676.081 1.2541e-16 
 7677.615 1.1474e-16 
 7679.149 1.1205e-16 
 7680.684 1.2659e-16 
 7682.218 1.259e-16  
 7683.752 1.2277e-16 
 7685.287 1.284e-16  
 7686.821 1.274e-16  
 7688.355 1.4048e-16 
 7689.889 1.469e-16  
 7691.424 1.4312e-16 
 7692.958 1.4249e-16 
 7694.492 1.2673e-16 
 7696.026 1.3215e-16 
 7697.561 1.2851e-16 
 7699.095 1.2529e-16 
 7700.629 1.3696e-16 
 7702.164 1.2328e-16 
 7703.698 1.1411e-16 
 7705.232 1.196e-16  
 7706.767 1.2392e-16 
 7708.301 1.059e-16  
 7709.835 1.1263e-16 
 7711.370 1.3755e-16 
 7712.904 1.2483e-16 
 7714.438 1.2434e-16 
 7715.972 1.29e-16   
 7717.507 1.0775e-16 
 7719.041 1.0447e-16 
 7720.575 1.2372e-16 
 7722.109 1.2208e-16 
 7723.644 1.229e-16  
 7725.178 1.4009e-16 
 7726.712 1.3212e-16 
 7728.247 1.1108e-16 
 7729.781 1.1329e-16 
 7731.315 1.2742e-16 
 7732.850 1.2998e-16 
 7734.384 1.3263e-16 
 7735.918 1.3434e-16 
 7737.453 1.237e-16  
 7738.987 1.2011e-16 
 7740.521 1.3291e-16 
 7742.055 1.2759e-16 
 7743.590 1.245e-16  
 7745.124 1.3247e-16 
 7746.658 1.3724e-16 
 7748.192 1.3635e-16 
 7749.727 1.5174e-16 
 7751.261 1.399e-16  
 7752.795 1.197e-16  
 7754.330 1.2097e-16 
 7755.864 1.2657e-16 
 7757.398 1.3142e-16 
 7758.933 1.2483e-16 
 7760.467 1.3342e-16 
 7762.001 1.2933e-16 
 7763.536 1.2347e-16 
 7765.070 1.2824e-16 
 7766.604 1.234e-16  
 7768.138 1.1726e-16 
 7769.673 1.225e-16  
 7771.207 1.2949e-16 
 7772.741 1.2637e-16 
 7774.275 1.2824e-16 
 7775.810 1.2695e-16 
 7777.344 1.1924e-16 
 7778.878 1.2716e-16 
 7780.413 1.3471e-16 
 7781.947 1.3479e-16 
 7783.481 1.2818e-16 
 7785.016 1.2744e-16 
 7786.550 1.2994e-16 
 7788.084 1.285e-16  
 7789.619 1.3354e-16 
 7791.153 1.3608e-16 
 7792.687 1.3323e-16 
 7794.221 1.2706e-16 
 7795.756 1.0768e-16 
 7797.290 1.0299e-16 
 7798.824 1.1946e-16 
 7800.358 1.2399e-16 
 7801.893 1.2027e-16 
 7803.427 1.2719e-16 
 7804.961 1.3232e-16 
 7806.496 1.3403e-16 
 7808.030 1.4031e-16 
 7809.564 1.4361e-16 
 7811.099 1.3543e-16 
 7812.633 1.2786e-16 
 7814.167 1.2269e-16 
 7815.702 1.2898e-16 
 7817.236 1.3446e-16 
 7818.770 1.3281e-16 
 7820.304 1.5026e-16 
 7821.839 1.5131e-16 
 7823.373 1.3529e-16 
 7824.907 1.252e-16  
 7826.441 1.2379e-16 
 7827.976 1.2935e-16 
 7829.510 1.2809e-16 
 7831.044 1.1991e-16 
 7832.579 1.2327e-16 
 7834.113 1.3815e-16 
 7835.647 1.3145e-16 
 7837.182 1.2938e-16 
 7838.716 1.4248e-16 
 7840.250 1.448e-16  
 7841.785 1.3485e-16 
 7843.319 1.3003e-16 
 7844.853 1.4e-16    
 7846.387 1.3597e-16 
 7847.922 1.3453e-16 
 7849.456 1.4504e-16 
 7850.990 1.3723e-16 
 7852.524 1.2035e-16 
 7854.059 1.2478e-16 
 7855.593 1.262e-16  
 7857.127 1.234e-16  
 7858.662 1.3205e-16 
 7860.196 1.2735e-16 
 7861.730 1.195e-16  
 7863.265 1.1054e-16 
 7864.799 1.2075e-16 
 7866.333 1.267e-16  
 7867.868 1.3161e-16 
 7869.402 1.3951e-16 
 7870.936 1.1985e-16 
 7872.470 1.0993e-16 
 7874.005 1.2474e-16 
 7875.539 1.2745e-16 
 7877.073 1.248e-16  
 7878.607 1.3851e-16 
 7880.142 1.2985e-16 
 7881.676 1.2345e-16 
 7883.210 1.2832e-16 
 7884.745 1.2486e-16 
 7886.279 1.295e-16  
 7887.813 1.3002e-16 
 7889.348 1.1627e-16 
 7890.882 1.2345e-16 
 7892.416 1.2729e-16 
 7893.951 1.3505e-16 
 7895.485 1.3096e-16 
 7897.019 1.213e-16  
 7898.553 1.3001e-16 
 7900.088 1.3201e-16 
 7901.622 1.1654e-16 
 7903.156 1.2714e-16 
 7904.690 1.4145e-16 
 7906.225 1.3749e-16 
 7907.759 1.4101e-16 
 7909.293 1.4445e-16 
 7910.828 1.4438e-16 
 7912.362 1.293e-16  
 7913.896 1.3622e-16 
 7915.431 1.2885e-16 
 7916.965 1.1501e-16 
 7918.500 1.2183e-16 
 7920.034 1.4061e-16 
 7921.568 1.3225e-16 
 7923.102 1.2142e-16 
 7924.636 1.1677e-16 
 7926.171 1.1906e-16 
 7927.705 1.3778e-16 
 7929.239 1.4526e-16 
 7930.773 1.239e-16  
 7932.308 1.2558e-16 
 7933.842 1.3639e-16 
 7935.376 1.2069e-16 
 7936.911 1.1272e-16 
 7938.445 1.2849e-16 
 7939.979 1.2198e-16 
 7941.514 1.1126e-16 
 7943.048 1.2236e-16 
 7944.583 1.2863e-16 
 7946.117 1.2337e-16 
 7947.651 1.1984e-16 
 7949.185 1.3734e-16 
 7950.719 1.2259e-16 
 7952.254 1.1157e-16 
 7953.788 1.227e-16  
 7955.322 1.1191e-16 
 7956.856 1.1168e-16 
 7958.391 1.1126e-16 
 7959.925 1.0409e-16 
 7961.459 1.2349e-16 
 7962.994 1.3818e-16 
 7964.528 1.2823e-16 
 7966.062 1.0692e-16 
 7967.597 1.0002e-16 
 7969.131 1.2776e-16 
 7970.666 1.386e-16  
 7972.200 1.3664e-16 
 7973.734 1.2913e-16 
 7975.268 1.2174e-16 
 7976.802 1.3189e-16 
 7978.337 1.4788e-16 
 7979.871 1.3118e-16 
 7981.405 1.2695e-16 
 7982.939 1.2136e-16 
 7984.474 1.1649e-16 
 7986.008 1.1527e-16 
 7987.542 1.1985e-16 
 7989.077 1.2639e-16 
 7990.611 1.3295e-16 
 7992.146 1.3666e-16 
 7993.680 1.3632e-16 
 7995.214 1.3203e-16 
 7996.749 1.1724e-16 
 7998.283 1.2131e-16 
 7999.817 1.1858e-16 
 8001.351 1.1496e-16 
 8002.886 1.27e-16   
 8004.420 1.2619e-16 
 8005.954 1.1875e-16 
 8007.488 1.2441e-16 
 8009.022 1.1774e-16 
 8010.557 1.0926e-16 
 8012.091 1.186e-16  
 8013.625 1.3537e-16 
 8015.160 1.3117e-16 
 8016.694 1.2422e-16 
 8018.229 1.3074e-16 
 8019.763 1.2623e-16 
 8021.297 1.2017e-16 
 8022.832 1.2849e-16 
 8024.366 1.2768e-16 
 8025.900 1.1728e-16 
 8027.434 1.2057e-16 
 8028.969 1.2761e-16 
 8030.503 1.1718e-16 
 8032.037 1.1506e-16 
 8033.571 1.237e-16  
 8035.105 1.2404e-16 
 8036.640 1.1971e-16 
 8038.174 1.1977e-16 
 8039.708 1.2429e-16 
 8041.243 1.2818e-16 
 8042.777 1.3288e-16 
 8044.312 1.3042e-16 
 8045.846 1.2423e-16 
 8047.380 1.2314e-16 
 8048.915 1.1988e-16 
 8050.449 1.2371e-16 
 8051.983 1.4256e-16 
 8053.517 1.3782e-16 
 8055.052 1.193e-16  
 8056.586 1.2725e-16 
 8058.120 1.4659e-16 
 8059.654 1.3705e-16 
 8061.189 1.177e-16  
 8062.723 1.2396e-16 
 8064.257 1.2807e-16 
 8065.792 1.2174e-16 
 8067.326 1.2049e-16 
 8068.860 1.196e-16  
 8070.395 1.1174e-16 
 8071.929 1.1045e-16 
 8073.463 1.0564e-16 
 8074.998 1.0641e-16 
 8076.532 1.2287e-16 
 8078.066 1.199e-16  
 8079.600 1.1399e-16 
 8081.135 1.2145e-16 
 8082.669 1.2727e-16 
 8084.203 1.2315e-16 
 8085.737 1.2261e-16 
 8087.272 1.2688e-16 
 8088.806 1.2143e-16 
 8090.340 1.1584e-16 
 8091.875 1.1569e-16 
 8093.409 1.1852e-16 
 8094.943 1.235e-16  
 8096.478 1.2227e-16 
 8098.012 1.2045e-16 
 8099.546 1.1381e-16 
 8101.081 1.1441e-16 
 8102.615 1.2262e-16 
 8104.149 1.1778e-16 
 8105.683 1.1573e-16 
 8107.218 1.1487e-16 
 8108.752 1.176e-16  
 8110.286 1.1805e-16 
 8111.820 1.1742e-16 
 8113.355 1.1296e-16 
 8114.889 1.1516e-16 
 8116.423 1.2799e-16 
 8117.958 1.2082e-16 
 8119.492 1.109e-16  
 8121.026 1.1644e-16 
 8122.561 1.2437e-16 
 8124.095 1.1983e-16 
 8125.629 1.2151e-16 
 8127.164 1.3137e-16 
 8128.698 1.2121e-16 
 8130.232 1.0439e-16 
 8131.766 1.1524e-16 
 8133.301 1.1715e-16 
 8134.835 1.1334e-16 
 8136.369 1.1719e-16 
 8137.903 1.1403e-16 
 8139.438 1.085e-16  
 8140.972 1.0761e-16 
 8142.506 1.1111e-16 
 8144.041 1.0747e-16 
 8145.575 1.0648e-16 
 8147.109 1.2113e-16 
 8148.644 1.0781e-16 
 8150.178 9.9031e-17 
 8151.712 1.2382e-16 
 8153.247 1.2603e-16 
 8154.781 1.2243e-16 
 8156.315 1.2232e-16 
 8157.849 1.1992e-16 
 8159.384 1.0217e-16 
 8160.918 1.0809e-16 
 8162.452 1.1958e-16 
 8163.986 1.1729e-16 
 8165.521 1.1448e-16 
 8167.055 1.1664e-16 
 8168.589 1.127e-16  
 8170.124 1.061e-16  
 8171.658 1.139e-16  
 8173.192 1.1666e-16 
 8174.727 1.1577e-16 
 8176.261 1.2402e-16 
 8177.795 1.2407e-16 
 8179.330 1.1247e-16 
 8180.864 1.1639e-16 
 8182.398 1.2485e-16 
 8183.932 1.1717e-16 
 8185.467 1.1705e-16 
 8187.001 1.1499e-16 
 8188.535 1.0943e-16 
 8190.069 1.0542e-16 
 8191.604 1.298e-16  
 8193.138 1.3005e-16 
 8194.673 1.1017e-16 
 8196.207 1.1091e-16 
 8197.741 1.2411e-16 
 8199.275 1.2017e-16 
 8200.810 1.1911e-16 
 8202.344 1.1717e-16 
 8203.878 1.0566e-16 
 8205.412 1.1391e-16 
 8206.946 1.2651e-16 
 8208.481 1.1459e-16 
 8210.016 1.1441e-16 
 8211.550 1.2666e-16 
 8213.084 1.1031e-16 
 8214.618 1.0224e-16 
 8216.152 1.0937e-16 
 8217.687 1.1512e-16 
 8219.221 1.1928e-16 
 8220.756 1.2872e-16 
 8222.290 1.2398e-16 
 8223.824 1.1911e-16 
 8225.358 1.2725e-16 
 8226.893 1.3273e-16 
 8228.427 1.1372e-16 
 8229.961 1.0922e-16 
 8231.495 1.1667e-16 
 8233.029 1.1304e-16 
 8234.564 1.1729e-16 
 8236.099 1.2285e-16 
 8237.633 1.2211e-16 
 8239.167 1.2099e-16 
 8240.701 1.2343e-16 
 8242.235 1.2402e-16 
 8243.770 1.1762e-16 
 8245.304 1.1183e-16 
 8246.839 1.1031e-16 
 8248.373 1.0526e-16 
 8249.907 1.0468e-16 
 8251.441 1.1455e-16 
 8252.976 1.2015e-16 
 8254.510 1.2639e-16 
 8256.044 1.2654e-16 
 8257.578 1.1618e-16 
 8259.113 1.1275e-16 
 8260.647 1.1241e-16 
 8262.182 1.1079e-16 
 8263.716 1.1013e-16 
 8265.250 1.1408e-16 
 8266.784 1.1451e-16 
 8268.318 1.0929e-16 
 8269.853 1.0993e-16 
 8271.387 1.2156e-16 
 8272.922 1.2059e-16 
 8274.456 1.1877e-16 
 8275.990 1.3119e-16 
 8277.524 1.3074e-16 
 8279.059 1.1906e-16 
 8280.593 1.1285e-16 
 8282.127 1.157e-16  
 8283.661 1.0092e-16 
 8285.196 1.064e-16  
 8286.730 1.299e-16  
 8288.265 1.3646e-16 
 8289.799 1.4105e-16 
 8291.333 1.2457e-16 
 8292.867 1.0684e-16 
 8294.401 1.0639e-16 
 8295.936 1.2318e-16 
 8297.470 1.3186e-16 
 8299.005 1.3922e-16 
 8300.539 1.2521e-16 
 8302.073 1.0221e-16 
 8303.607 1.0316e-16 
 8305.142 1.128e-16  
 8306.676 1.2614e-16 
 8308.210 1.2327e-16 
 8309.744 1.2074e-16 
 8311.279 1.1643e-16 
 8312.813 1.1103e-16 
 8314.348 1.0768e-16 
 8315.882 1.1524e-16 
 8317.416 1.2155e-16 
 8318.950 1.127e-16  
 8320.484 1.0794e-16 
 8322.019 1.0871e-16 
 8323.553 1.0896e-16 
 8325.088 1.2203e-16 
 8326.622 1.0965e-16 
 8328.156 9.873e-17  
 8329.690 1.0983e-16 
 8331.225 1.2179e-16 
 8332.759 1.2406e-16 
 8334.293 1.2202e-16 
 8335.827 1.2282e-16 
 8337.362 1.1247e-16 
 8338.896 1.0609e-16 
 8340.431 1.3334e-16 
 8341.965 1.6272e-16 
 8343.499 1.3578e-16 
 8345.033 1.2848e-16 
 8346.567 1.4563e-16 
 8348.102 1.0359e-16 
 8349.636 1.2942e-16 
 8351.171 1.2445e-16 
 8352.705 1.1021e-16 
 8354.239 1.1512e-16 
 8355.773 1.0985e-16 
 8357.308 1.1535e-16 
 8358.842 1.2113e-16 
 8360.376 1.2537e-16 
 8361.910 1.1553e-16 
 8363.445 1.0144e-16 
 8364.979 1.153e-16  
 8366.514 1.1981e-16 
 8368.048 1.1187e-16 
 8369.582 1.2324e-16 
 8371.116 1.2656e-16 
 8372.650 1.1368e-16 
 8374.185 1.1158e-16 
 8375.719 1.2128e-16 
 8377.254 1.1941e-16 
 8378.788 1.2138e-16 
 8380.322 1.3642e-16 
 8381.856 1.3214e-16 
 8383.391 1.0207e-16 
 8384.925 1.1712e-16 
 8386.459 1.1656e-16 
 8387.993 1.1601e-16 
 8389.528 1.2665e-16 
 8391.062 1.2549e-16 
 8392.597 1.038e-16  
 8394.131 1.0014e-16 
 8395.665 1.2889e-16 
 8397.199 1.3184e-16 
 8398.733 1.3434e-16 
 8400.268 1.3006e-16 
 8401.803 1.0559e-16 
 8403.337 1.0907e-16 
 8404.871 1.2312e-16 
 8406.405 1.182e-16  
 8407.939 1.0817e-16 
 8409.474 1.1268e-16 
 8411.008 1.2809e-16 
 8412.542 1.2791e-16 
 8414.076 1.2331e-16 
 8415.611 1.3777e-16 
 8417.146 1.1899e-16 
 8418.680 1.0177e-16 
 8420.214 1.1446e-16 
 8421.748 1.1448e-16 
 8423.282 1.0509e-16 
 8424.816 1.0094e-16 
 8426.351 1.1119e-16 
 8427.886 1.1886e-16 
 8429.420 1.2376e-16 
 8430.954 1.2803e-16 
 8432.488 1.2256e-16 
 8434.022 1.1266e-16 
 8435.557 1.0928e-16 
 8437.091 1.1232e-16 
 8438.625 1.136e-16  
 8440.159 1.1747e-16 
 8441.694 1.0892e-16 
 8443.229 1.1032e-16 
 8444.763 1.226e-16  
 8446.297 1.1156e-16 
 8447.831 1.1495e-16 
 8449.365 1.318e-16  
 8450.899 1.1849e-16 
 8452.434 1.1164e-16 
 8453.969 1.2947e-16 
 8455.503 1.2668e-16 
 8457.037 1.1276e-16 
 8458.571 1.0636e-16 
 8460.105 1.0909e-16 
 8461.640 1.2501e-16 
 8463.174 1.2805e-16 
 8464.708 1.2072e-16 
 8466.242 1.2865e-16 
 8467.777 1.2542e-16 
 8469.312 1.1626e-16 
 8470.846 1.1746e-16 
 8472.380 1.2013e-16 
 8473.914 1.1785e-16 
 8475.448 1.0851e-16 
 8476.982 1.0887e-16 
 8478.517 1.2084e-16 
 8480.052 1.3157e-16 
 8481.586 1.3116e-16 
 8483.120 1.2445e-16 
 8484.654 1.2112e-16 
 8486.188 1.1491e-16 
 8487.723 1.185e-16  
 8489.257 1.3696e-16 
 8490.791 1.3124e-16 
 8492.325 1.0856e-16 
 8493.860 1.0988e-16 
 8495.395 1.2093e-16 
 8496.929 1.1398e-16 
 8498.463 1.1451e-16 
 8499.997 1.2942e-16 
 8501.531 1.3576e-16 
 8503.065 1.1995e-16 
 8504.600 1.1733e-16 
 8506.135 1.1695e-16 
 8507.669 1.0648e-16 
 8509.203 1.1384e-16 
 8510.737 1.2398e-16 
 8512.271 1.1781e-16 
 8513.806 1.1645e-16 
 8515.340 1.2212e-16 
 8516.874 1.1755e-16 
 8518.408 1.1671e-16 
 8519.943 1.2113e-16 
 8521.478 1.1806e-16 
 8523.012 1.1754e-16 
 8524.546 1.226e-16  
 8526.080 1.1646e-16 
 8527.614 1.1359e-16 
 8529.148 1.2233e-16 
 8530.683 1.1711e-16 
 8532.218 1.1253e-16 
 8533.752 1.209e-16  
 8535.286 1.3096e-16 
 8536.820 1.3007e-16 
 8538.354 1.349e-16  
 8539.889 1.3559e-16 
 8541.423 1.2187e-16 
 8542.957 1.195e-16  
 8544.492 1.2191e-16 
 8546.026 1.3139e-16 
 8547.561 1.2099e-16 
 8549.095 1.1969e-16 
 8550.629 1.2162e-16 
 8552.163 1.0335e-16 
 8553.697 1.1076e-16 
 8555.231 1.1316e-16 
 8556.766 1.0459e-16 
 8558.301 1.1013e-16 
 8559.835 1.1592e-16 
 8561.369 1.1257e-16 
 8562.903 1.1186e-16 
 8564.438 1.13e-16   
 8565.972 1.1125e-16 
 8567.506 1.1606e-16 
 8569.040 1.1846e-16 
 8570.575 1.1345e-16 
 8572.109 1.0767e-16 
 8573.644 1.1086e-16 
 8575.178 1.1625e-16 
 8576.712 1.118e-16  
 8578.246 1.1468e-16 
 8579.780 1.1124e-16 
 8581.314 1.11e-16   
 8582.849 1.1603e-16 
 8584.384 1.2074e-16 
 8585.918 1.0932e-16 
 8587.452 1.0171e-16 
 8588.986 1.1357e-16 
 8590.521 1.1608e-16 
 8592.055 1.0322e-16 
 8593.589 1.0298e-16 
 8595.123 1.0599e-16 
 8596.658 9.9989e-17 
 8598.192 1.0826e-16 
 8599.727 1.1096e-16 
 8601.261 1.0264e-16 
 8602.795 1.0833e-16 
 8604.329 1.1516e-16 
 8605.863 1.08e-16   
 8607.397 1.1714e-16 
 8608.932 1.2354e-16 
 8610.467 1.0833e-16 
 8612.001 9.5726e-17 
 8613.535 1.0423e-16 
 8615.069 1.1529e-16 
 8616.604 1.2095e-16 
 8618.138 1.1524e-16 
 8619.672 1.0479e-16 
 8621.206 1.091e-16  
 8622.741 1.0957e-16 
 8624.275 1.0209e-16 
 8625.810 1.0342e-16 
 8627.344 1.0673e-16 
 8628.878 1.1186e-16 
 8630.412 1.1809e-16 
 8631.946 1.2189e-16 
 8633.480 1.2356e-16 
 8635.015 1.2014e-16 
 8636.550 1.0627e-16 
 8638.084 1.0585e-16 
 8639.618 1.0692e-16 
 8641.152 9.7231e-17 
 8642.687 1.0171e-16 
 8644.221 1.0085e-16 
 8645.755 9.9732e-17 
 8647.289 1.1472e-16 
 8648.824 1.2114e-16 
 8650.358 1.1524e-16 
 8651.893 1.1155e-16 
 8653.427 1.1463e-16 
 8654.961 1.0598e-16 
 8656.495 9.4918e-17 
 8658.029 1.0369e-16 
 8659.563 1.1274e-16 
 8661.098 1.1287e-16 
 8662.633 1.1458e-16 
 8664.167 1.1161e-16 
 8665.701 1.0254e-16 
 8667.235 1.0328e-16 
 8668.770 1.0379e-16 
 8670.304 1.0378e-16 
 8671.838 1.0238e-16 
 8673.372 1.0218e-16 
 8674.907 1.0181e-16 
 8676.441 9.6855e-17 
 8677.976 1.0661e-16 
 8679.510 1.0195e-16 
 8681.044 9.048e-17  
 8682.578 1.0713e-16 
 8684.112 1.2115e-16 
 8685.646 1.1381e-16 
 8687.181 1.067e-16  
 8688.716 1.09e-16   
 8690.250 9.955e-17  
 8691.784 9.3522e-17 
 8693.318 1.1247e-16 
 8694.853 1.0448e-16 
 8696.387 9.3264e-17 
 8697.921 1.0162e-16 
 8699.455 1.019e-16  
 8700.990 1.0688e-16 
 8702.524 1.1628e-16 
 8704.059 1.1114e-16 
 8705.593 1.0708e-16 
 8707.127 1.0958e-16 
 8708.661 1.091e-16  
 8710.195 1.0223e-16 
 8711.729 9.4633e-17 
 8713.265 1.079e-16  
 8714.799 1.0841e-16 
 8716.333 1.0699e-16 
 8717.867 1.1093e-16 
 8719.401 1.061e-16  
 8720.936 1.0176e-16 
 8722.470 1.0485e-16 
 8724.004 1.1537e-16 
 8725.538 1.1078e-16 
 8727.073 1.0587e-16 
 8728.607 1.0672e-16 
 8730.142 1.0239e-16 
 8731.676 9.8009e-17 
 8733.210 1.1153e-16 
 8734.744 1.1563e-16 
 8736.278 1.131e-16  
 8737.812 1.1067e-16 
 8739.348 1.06e-16   
 8740.882 1.0336e-16 
 8742.416 1.142e-16  
 8743.950 1.0759e-16 
 8745.484 9.117e-17  
 8747.019 9.8128e-17 
 8748.553 1.1273e-16 
 8750.087 1.0335e-16 
 8751.621 1.0619e-16 
 8753.156 1.1224e-16 
 8754.690 1.0089e-16 
 8756.225 1.0293e-16 
 8757.759 1.1357e-16 
 8759.293 1.2477e-16 
 8760.827 1.0385e-16 
 8762.361 1.0631e-16 
 8763.896 1.2364e-16 
 8765.431 1.0276e-16 
 8766.965 9.1403e-17 
 8768.499 1.0822e-16 
 8770.033 1.0026e-16 
 8771.567 8.5027e-17 
 8773.102 9.9785e-17 
 8774.636 1.247e-16  
 8776.170 1.3155e-16 
 8777.704 1.2453e-16 
 8779.239 1.4362e-16 
 8780.773 1.1399e-16 
 8782.308 1.0451e-16 
 8783.842 1.1015e-16 
 8785.376 1.1054e-16 
 8786.910 1.2633e-16 
 8788.444 1.1601e-16 
 8789.979 1.0255e-16 
 8791.514 1.1285e-16 
 8793.048 1.144e-16  
 8794.582 1.0467e-16 
 8796.116 1.1037e-16 
 8797.650 1.1477e-16 
 8799.185 1.0892e-16 
 8800.719 1.0316e-16 
 8802.253 1.0511e-16 
 8803.787 1.0811e-16 
 8805.322 1.1232e-16 
 8806.856 1.1023e-16 
 8808.391 1.1259e-16 
 8809.925 1.1245e-16 
 8811.459 1.1338e-16 
 8812.993 1.1211e-16 
 8814.527 9.6826e-17 
 8816.062 9.3184e-17 
 8817.597 1.0421e-16 
 8819.131 9.5698e-17 
 8820.665 8.7507e-17 
 8822.199 1.3259e-16 
 8823.733 1.6716e-16 
 8825.268 1.3239e-16 
 8826.802 1.2651e-16 
 8828.336 1.3456e-16 
 8829.870 8.1334e-17 
 8831.405 7.3796e-17 
 8832.939 1.2354e-16 
 8834.474 1.254e-16  
 8836.008 1.0044e-16 
 8837.542 1.0538e-16 
 8839.076 1.0188e-16 
 8840.610 9.7975e-17 
 8842.145 1.1209e-16 
 8843.680 1.1288e-16 
 8845.214 1.1389e-16 
 8846.748 1.2148e-16 
 8848.282 1.1895e-16 
 8849.816 1.1304e-16 
 8851.351 1.172e-16  
 8852.885 1.1419e-16 
 8854.419 1.0687e-16 
 8855.954 1.095e-16  
 8857.488 1.1631e-16 
 8859.022 1.1589e-16 
 8860.557 1.0549e-16 
 8862.091 1.1535e-16 
 8863.625 1.3532e-16 
 8865.159 1.2922e-16 
 8866.693 1.0335e-16 
 8868.228 1.1202e-16 
 8869.763 1.1113e-16 
 8871.297 9.5753e-17 
 8872.831 1.0371e-16 
 8874.365 1.1271e-16 
 8875.899 1.1114e-16 
 8877.434 1.076e-16  
 8878.968 1.0935e-16 
 8880.502 1.0952e-16 
 8882.037 1.1882e-16 
 8883.571 1.1729e-16 
 8885.105 1.177e-16  
 8886.640 1.2993e-16 
 8888.174 1.0492e-16 
 8889.708 9.0626e-17 
 8891.242 1.036e-16  
 8892.776 1.0776e-16 
 8894.311 1.0381e-16 
 8895.846 1.0933e-16 
 8897.380 1.1646e-16 
 8898.914 1.2571e-16 
 8900.448 1.2519e-16 
 8901.982 1.2045e-16 
 8903.517 1.2814e-16 
 8905.051 1.0191e-16 
 8906.585 9.5384e-17 
 8908.120 1.1869e-16 
 8909.654 1.1308e-16 
 8911.188 1.0701e-16 
 8912.723 1.0717e-16 
 8914.257 1.0437e-16 
 8915.791 1.3869e-16 
 8917.325 1.7247e-16 
 8918.859 1.4516e-16 
 8920.394 1.0514e-16 
 8921.929 1.1309e-16 
 8923.463 9.9832e-17 
 8924.997 1.1416e-16 
 8926.531 1.1984e-16 
 8928.065 1.1446e-16 
 8929.600 1.1031e-16 
 8931.134 1.1552e-16 
 8932.668 1.2056e-16 
 8934.203 1.1596e-16 
 8935.737 1.1179e-16 
 8937.271 1.1933e-16 
 8938.806 1.3863e-16 
 8940.340 1.4176e-16 
 8941.874 1.1463e-16 
 8943.408 1.0831e-16 
 8944.942 1.0668e-16 
 8946.477 1.1009e-16 
 8948.012 1.1198e-16 
 8949.546 1.0861e-16 
 8951.080 1.1314e-16 
 8952.614 1.1914e-16 
 8954.148 1.383e-16  
 8955.683 1.3356e-16 
 8957.217 1.2627e-16 
 8958.751 1.2711e-16 
 8960.286 1.0867e-16 
 8961.820 1.1053e-16 
 8963.354 1.1444e-16 
 8964.889 1.1229e-16 
 8966.423 1.1778e-16 
 8967.957 1.1989e-16 
 8969.491 1.1509e-16 
 8971.025 1.1775e-16 
 8972.560 1.1912e-16 
 8974.095 1.1054e-16 
 8975.629 1.1216e-16 
 8977.163 1.2167e-16 
 8978.697 1.2358e-16 
 8980.231 1.1789e-16 
 8981.766 1.1037e-16 
 8983.300 1.1074e-16 
 8984.834 1.2604e-16 
 8986.369 1.3688e-16 
 8987.903 1.3009e-16 
 8989.438 1.195e-16  
 8990.972 1.15e-16   
 8992.506 1.1396e-16 
 8994.040 1.0062e-16 
 8995.574 1.0544e-16 
 8997.108 1.2824e-16 
 8998.644 1.3268e-16 
 9000.178 1.4162e-16 
 9001.712 1.5061e-16 
 9003.246 1.214e-16  
 9004.780 1.0209e-16 
 9006.314 1.1311e-16 
 9007.849 1.1105e-16 
 9009.383 1.01e-16   
 9010.917 1.1337e-16 
 9012.452 1.2101e-16 
 9013.986 1.1333e-16 
 9015.521 1.1682e-16 
 9017.055 1.2517e-16 
 9018.589 1.2041e-16 
 9020.123 1.1267e-16 
 9021.657 1.1091e-16 
 9023.191 1.1447e-16 
 9024.727 1.1567e-16 
 9026.261 1.1656e-16 
 9027.795 1.1756e-16 
 9029.329 1.1839e-16 
 9030.863 1.2742e-16 
 9032.397 1.211e-16  
 9033.932 1.0684e-16 
 9035.466 1.1232e-16 
 9037.000 1.236e-16  
 9038.535 1.1882e-16 
 9040.069 1.1248e-16 
 9041.604 1.1854e-16 
 9043.138 1.1241e-16 
 9044.672 1.0521e-16 
 9046.206 1.1983e-16 
 9047.740 1.284e-16  
 9049.274 1.1873e-16 
 9050.810 1.1459e-16 
 9052.344 1.1204e-16 
 9053.878 1.1265e-16 
 9055.412 1.2046e-16 
 9056.946 1.2941e-16 
 9058.480 1.1621e-16 
 9060.015 1.1357e-16 
 9061.549 1.223e-16  
 9063.083 1.1449e-16 
 9064.618 1.0923e-16 
 9066.152 1.1873e-16 
 9067.687 1.2087e-16 
 9069.221 1.1815e-16 
 9070.755 1.2433e-16 
 9072.289 1.2054e-16 
 9073.823 1.2046e-16 
 9075.357 1.2668e-16 
 9076.893 1.2317e-16 
 9078.427 1.0796e-16 
 9079.961 1.1473e-16 
 9081.495 1.2615e-16 
 9083.029 1.0537e-16 
 9084.563 9.5313e-17 
 9086.098 1.1845e-16 
 9087.632 1.1804e-16 
 9089.166 1.186e-16  
 9090.701 1.1469e-16 
 9092.235 1.172e-16  
 9093.770 1.114e-16  
 9095.304 1.1417e-16 
 9096.838 1.2308e-16 
 9098.372 1.1749e-16 
 9099.906 1.1924e-16 
 9101.440 1.2042e-16 
 9102.976 1.2092e-16 
 9104.510 1.2088e-16 
 9106.044 1.1942e-16 
 9107.578 1.1302e-16 
 9109.112 1.1252e-16 
 9110.646 1.1512e-16 
 9112.181 1.1798e-16 
 9113.715 1.1928e-16 
 9115.249 1.2031e-16 
 9116.784 1.293e-16  
 9118.318 1.2996e-16 
 9119.853 1.2154e-16 
 9121.387 1.2497e-16 
 9122.921 1.1816e-16 
 9124.455 1.1821e-16 
 9125.989 1.2531e-16 
 9127.523 1.0878e-16 
 9129.059 1.0072e-16 
 9130.593 1.1688e-16 
 9132.127 1.1668e-16 
 9133.661 1.1309e-16 
 9135.195 1.1247e-16 
 9136.729 1.1205e-16 
 9138.264 1.1395e-16 
 9139.798 1.1749e-16 
 9141.333 1.2203e-16 
 9142.867 1.0867e-16 
 9144.401 1.0292e-16 
 9145.936 1.1194e-16 
 9147.470 1.123e-16  
 9149.004 1.1308e-16 
 9150.538 1.293e-16  
 9152.072 1.2561e-16 
 9153.606 1.2022e-16 
 9155.142 1.2601e-16 
 9156.676 1.1662e-16 
 9158.210 1.2159e-16 
 9159.744 1.3885e-16 
 9161.278 1.2704e-16 
 9162.812 1.1803e-16 
 9164.347 1.1711e-16 
 9165.881 1.1993e-16 
 9167.416 1.2457e-16 
 9168.950 1.2659e-16 
 9170.484 1.3073e-16 
 9172.019 1.1503e-16 
 9173.553 1.0647e-16 
 9175.087 1.1905e-16 
 9176.621 1.2867e-16 
 9178.155 1.203e-16  
 9179.689 1.1691e-16 
 9181.225 1.1899e-16 
 9182.759 1.1903e-16 
 9184.293 1.1363e-16 
 9185.827 1.139e-16  
 9187.361 1.116e-16  
 9188.896 1.1072e-16 
 9190.430 1.2273e-16 
 9191.964 1.1818e-16 
 9193.499 1.0717e-16 
 9195.033 1.2343e-16 
 9196.567 1.2355e-16 
 9198.102 1.0304e-16 
 9199.636 1.0736e-16 
 9201.170 1.1395e-16 
 9202.704 1.0539e-16 
 9204.238 9.9395e-17 
 9205.772 9.9985e-17 
 9207.308 1.0275e-16 
 9208.842 1.0197e-16 
 9210.376 1.1069e-16 
 9211.910 1.2125e-16 
 9213.444 1.1288e-16 
 9214.979 1.0135e-16 
 9216.513 1.0111e-16 
 9218.047 1.0737e-16 
 9219.582 1.1424e-16 
 9221.116 1.1411e-16 
 9222.650 1.0628e-16 
 9224.185 1.0692e-16 
 9225.719 1.1331e-16 
 9227.253 1.1071e-16 
 9228.787 1.1502e-16 
 9230.321 1.1699e-16 
 9231.855 1.0879e-16 
 9233.391 1.0231e-16 
 9234.925 1.0961e-16 
 9236.459 1.1463e-16 
 9237.993 1.0991e-16 
 9239.527 1.1037e-16 
 9241.062 1.0887e-16 
 9242.596 1.0643e-16 
 9244.130 1.1703e-16 
 9245.665 1.1476e-16 
 9247.199 1.0434e-16 
 9248.733 1.0221e-16 
 9250.268 1.0847e-16 
 9251.802 1.0675e-16 
 9253.336 1.0472e-16 
 9254.870 1.1196e-16 
 9256.404 1.1115e-16 
 9257.938 1.0647e-16 
 9259.474 1.1916e-16 
 9261.008 1.2738e-16 
 9262.542 1.1329e-16 
 9264.076 1.0816e-16 
 9265.610 1.1244e-16 
 9267.145 1.0124e-16 
 9268.679 1.0478e-16 
 9270.213 1.1691e-16 
 9271.748 1.1503e-16 
 9273.282 1.0723e-16 
 9274.816 1.2142e-16 
 9276.351 1.0733e-16 
 9277.885 1.0038e-16 
 9279.419 1.1496e-16 
 9280.953 1.1533e-16 
 9282.487 9.1545e-17 
 9284.021 9.3489e-17 
 9285.557 9.7744e-17 
 9287.091 9.6744e-17 
 9288.625 9.8617e-17 
 9290.159 1.0468e-16 
 9291.693 1.0525e-16 
 9293.228 1.0098e-16 
 9294.762 1.0916e-16 
 9296.296 1.1954e-16 
 9297.831 1.1437e-16 
 9299.365 1.0049e-16 
 9300.899 1.1001e-16 
 9302.434 1.2284e-16 
 9303.968 1.4291e-16 
 9305.502 1.1659e-16 
 9307.036 1.2213e-16 
 9308.570 1.2357e-16 
 9310.105 1.0766e-16 
 9311.640 1.0721e-16 
 9313.174 1.1982e-16 
 9314.708 1.0908e-16 
 9316.242 9.0872e-17 
 9317.776 9.5453e-17 
 9319.311 1.2055e-16 
 9320.845 1.2744e-16 
 9322.379 8.9417e-17 
 9323.914 1.5148e-16 
 9325.448 1.4396e-16 
 9326.982 1.0223e-16 
 9328.517 1.0086e-16 
 9330.051 9.7839e-17 
 9331.585 9.0837e-17 
 9333.119 1.0064e-16 
 9334.653 1.2486e-16 
 9336.188 1.1826e-16 
 9337.723 1.0084e-16 
 9339.257 1.22e-16   
 9340.791 8.8349e-17 
 9342.325 8.3176e-17 
 9343.859 1.3808e-16 
 9345.394 1.3019e-16 
 9346.928 1.1361e-16 
 9348.462 1.0398e-16 
 9349.997 1.0631e-16 
 9351.531 1.1785e-16 
 9353.065 1.3325e-16 
 9354.600 1.2399e-16 
 9356.134 1.1041e-16 
 9357.668 1.1104e-16 
 9359.202 1.0547e-16 
 9360.736 1.0428e-16 
 9362.271 1.0118e-16 
 9363.806 1.0684e-16 
 9365.340 1.2349e-16 
 9366.874 1.1792e-16 
 9368.408 9.9148e-17 
 9369.942 8.8342e-17 
 9371.477 1.0211e-16 
 9373.011 1.2116e-16 
 9374.545 1.1902e-16 
 9376.080 1.364e-16  
 9377.614 1.529e-16  
 9379.148 1.0327e-16 
 9380.683 7.663e-17  
 9382.217 9.735e-17  
 9383.751 1.037e-16  
 9385.285 1.046e-16  
 9386.819 1.0007e-16 
 9388.354 1.0075e-16 
 9389.889 1.01e-16   
 9391.423 9.5722e-17 
 9392.957 1.0032e-16 
 9394.491 1.0545e-16 
 9396.025 9.8426e-17 
 9397.560 1.0408e-16 
 9399.094 1.1817e-16 
 9400.628 1.0764e-16 
 9402.163 9.3885e-17 
 9403.697 1.0164e-16 
 9405.231 1.0512e-16 
 9406.766 8.9784e-17 
 9408.300 1.0376e-16 
 9409.834 1.1743e-16 
 9411.368 1.0755e-16 
 9412.902 1.0507e-16 
 9414.438 1.1543e-16 
 9415.972 1.2007e-16 
 9417.506 1.0924e-16 
 9419.040 1.138e-16  
 9420.574 1.1964e-16 
 9422.108 9.5745e-17 
 9423.643 9.8861e-17 
 9425.177 1.115e-16  
 9426.711 1.0498e-16 
 9428.246 1.107e-16  
 9429.780 1.2158e-16 
 9431.314 1.0862e-16 
 9432.849 9.4029e-17 
 9434.383 9.3871e-17 
 9435.917 1.1982e-16 
 9437.451 1.2203e-16 
 9438.985 1.6035e-16 
 9440.521 2.2339e-16 
 9442.055 1.1766e-16 
 9443.589 9.65e-17   
 9445.123 1.0657e-16 
 9446.657 9.9679e-17 
 9448.191 1.1608e-16 
 9449.726 1.1577e-16 
 9451.260 8.4854e-17 
 9452.795 8.6482e-17 
 9454.329 1.299e-16  
 9455.863 1.5385e-16 
 9457.397 1.1799e-16 
 9458.932 1.1414e-16 
 9460.466 1.0624e-16 
 9462.000 9.6669e-17 
 9463.534 1.0488e-16 
 9465.068 1.0597e-16 
 9466.604 1.0043e-16 
 9468.138 1.0568e-16 
 9469.672 1.184e-16  
 9471.206 1.1739e-16 
 9472.740 1.3966e-16 
 9474.274 1.3586e-16 
 9475.809 1.2512e-16 
 9477.343 1.5948e-16 
 9478.878 1.2088e-16 
 9480.412 8.7055e-17 
 9481.946 1.1345e-16 
 9483.480 1.1976e-16 
 9485.015 1.1811e-16 
 9486.549 1.0918e-16 
 9488.083 1.0726e-16 
 9489.617 1.0553e-16 
 9491.151 9.8211e-17 
 9492.687 1.0743e-16 
 9494.221 1.2362e-16 
 9495.755 9.38e-17   
 9497.289 9.8572e-17 
 9498.823 1.3381e-16 
 9500.357 1.2514e-16 
 9501.892 1.3377e-16 
 9503.426 1.3413e-16 
 9504.961 1.1074e-16 
 9506.495 9.3638e-17 
 9508.029 1.0487e-16 
 9509.563 1.095e-16  
 9511.098 1.07e-16   
 9512.632 9.3078e-17 
 9514.166 1.0578e-16 
 9515.700 1.1981e-16 
 9517.234 9.6587e-17 
 9518.770 9.5399e-17 
 9520.304 8.48e-17   
 9521.838 1.0008e-16 
 9523.372 1.1683e-16 
 9524.906 1.0836e-16 
 9526.440 1.0589e-16 
 9527.975 1.1817e-16 
 9529.509 1.1091e-16 
 9531.044 9.1598e-17 
 9532.578 1.0233e-16 
 9534.112 1.1313e-16 
 9535.646 9.755e-17  
 9537.181 9.5148e-17 
 9538.715 1.1383e-16 
 9540.249 1.1103e-16 
 9541.783 1.0986e-16 
 9543.317 1.1594e-16 
 9544.853 1.1166e-16 
 9546.387 1.0669e-16 
 9547.921 1.0941e-16 
 9549.455 1.0336e-16 
 9550.989 1.2329e-16 
 9552.523 1.3949e-16 
 9554.058 1.2419e-16 
 9555.592 1.1088e-16 
 9557.127 1.1488e-16 
 9558.661 1.1594e-16 
 9560.195 1.0801e-16 
 9561.729 1.0288e-16 
 9563.264 1.1247e-16 
 9564.798 1.0915e-16 
 9566.332 1.187e-16  
 9567.866 1.4226e-16 
 9569.400 1.1354e-16 
 9570.936 9.1729e-17 
 9572.470 1.0148e-16 
 9574.004 1.0478e-16 
 9575.538 1.0375e-16 
 9577.072 1.07e-16   
 9578.606 1.1488e-16 
 9580.141 1.1162e-16 
 9581.675 1.0476e-16 
 9583.210 1.1024e-16 
 9584.744 1.0793e-16 
 9586.278 1.0432e-16 
 9587.812 1.2107e-16 
 9589.347 1.2378e-16 
 9590.881 1.0361e-16 
 9592.415 1.0455e-16 
 9593.949 1.0254e-16 
 9595.484 9.3455e-17 
 9597.019 1.0767e-16 
 9598.553 1.2083e-16 
 9600.087 1.0974e-16 
 9601.621 1.0613e-16 
 9603.155 1.1339e-16 
 9604.689 1.1952e-16 
 9606.224 1.2439e-16 
 9607.758 1.2761e-16 
 9609.293 1.0983e-16 
 9610.827 9.6978e-17 
 9612.361 1.2018e-16 
 9613.896 1.2229e-16 
 9615.430 9.9617e-17 
 9616.964 1.2073e-16 
 9618.498 1.4422e-16 
 9620.032 1.161e-16  
 9621.567 9.8884e-17 
 9623.102 1.1565e-16 
 9624.636 1.0557e-16 
 9626.170 1.0508e-16 
 9627.704 1.0981e-16 
 9629.238 1.0163e-16 
 9630.772 1.0213e-16 
 9632.307 1.0575e-16 
 9633.841 1.0851e-16 
 9635.376 9.6828e-17 
 9636.910 9.3389e-17 
 9638.444 1.0786e-16 
 9639.979 1.046e-16  
 9641.513 1.2067e-16 
 9643.047 1.2216e-16 
 9644.581 9.0865e-17 
 9646.115 9.5681e-17 
 9647.650 1.1312e-16 
 9649.185 1.1146e-16 
 9650.719 1.0204e-16 
 9652.253 1.1004e-16 
 9653.787 1.0636e-16 
 9655.321 9.475e-17  
 9656.855 1.0786e-16 
 9658.390 1.1559e-16 
 9659.924 1.0469e-16 
 9661.459 9.4664e-17 
 9662.993 9.1475e-17 
 9664.527 9.1201e-17 
 9666.062 1.1053e-16 
 9667.596 1.2845e-16 
 9669.130 1.2443e-16 
 9670.664 1.0618e-16 
 9672.198 9.7321e-17 
 9673.733 9.5312e-17 
 9675.268 9.6777e-17 
 9676.802 1.0335e-16 
 9678.336 1.1642e-16 
 9679.870 1.295e-16  
 9681.404 1.3996e-16 
 9682.938 1.3392e-16 
 9684.473 1.0189e-16 
 9686.007 7.9816e-17 
 9687.542 9.5797e-17 
 9689.076 1.0925e-16 
 9690.610 1.0597e-16 
 9692.145 8.9098e-17 
 9693.679 9.5427e-17 
 9695.213 1.2374e-16 
 9696.747 1.2764e-16 
 9698.281 1.0011e-16 
 9699.816 8.199e-17  
 9701.351 9.112e-17  
 9702.885 8.594e-17  
 9704.419 8.8596e-17 
 9705.953 1.0072e-16 
 9707.487 1.1893e-16 
 9709.021 1.1113e-16 
 9710.556 9.2786e-17 
 9712.090 9.266e-17  
 9713.625 9.1278e-17 
 9715.159 1.0175e-16 
 9716.693 1.1652e-16 
 9718.228 1.1843e-16 
 9719.762 1.1005e-16 
 9721.296 1.1157e-16 
 9722.830 1.0222e-16 
 9724.364 9.0149e-17 
 9725.899 7.8676e-17 
 9727.434 8.656e-17  
 9728.968 1.0151e-16 
 9730.502 1.2059e-16 
 9732.036 1.2693e-16 
 9733.570 1.0833e-16 
 9735.104 1.1012e-16 
 9736.639 1.3532e-16 
 9738.174 1.1715e-16 
 9739.708 1.0457e-16 
 9741.242 1.1381e-16 
 9742.776 1.0844e-16 
 9744.311 8.8651e-17 
 9745.845 9.6582e-17 
 9747.379 1.1767e-16 
 9748.913 1.0454e-16 
 9750.447 9.634e-17  
 9751.982 1.0387e-16 
 9753.517 1.0436e-16 
 9755.051 1.0631e-16 
 9756.585 1.1468e-16 
 9758.119 1.0724e-16 
 9759.653 8.9274e-17 
 9761.188 9.5678e-17 
 9762.722 1.1494e-16 
 9764.257 1.1223e-16 
 9765.791 9.8037e-17 
 9767.325 9.565e-17  
 9768.859 9.6162e-17 
 9770.394 1.055e-16  
 9771.928 1.1174e-16 
 9773.462 1.0294e-16 
 9774.996 1.072e-16  
 9776.530 1.1664e-16 
 9778.065 1.0809e-16 
 9779.600 1.0174e-16 
 9781.134 1.1129e-16 
 9782.668 1.0921e-16 
 9784.202 9.4743e-17 
 9785.736 1.111e-16  
 9787.271 1.4946e-16 
 9788.805 1.3223e-16 
 9790.340 9.7565e-17 
 9791.874 1.1889e-16 
 9793.408 1.0739e-16 
 9794.942 6.5112e-17 
 9796.477 9.3705e-17 
 9798.011 1.1907e-16 
 9799.545 1.0855e-16 
 9801.079 1.132e-16  
 9802.613 8.8559e-17 
 9804.148 8.8473e-17 
 9805.683 1.1363e-16 
 9807.217 1.2815e-16 
 9808.751 1.0663e-16 
 9810.285 1.0628e-16 
 9811.819 1.2251e-16 
 9813.354 1.0168e-16 
 9814.888 8.9967e-17 
 9816.423 1.1005e-16 
 9817.957 1.1076e-16 
 9819.491 1.0735e-16 
 9821.025 1.1381e-16 
 9822.560 1.098e-16  
 9824.094 1.059e-16  
 9825.628 1.0499e-16 
 9827.162 1.2117e-16 
 9828.696 1.2047e-16 
 9830.231 1.1172e-16 
 9831.766 1.1786e-16 
 9833.300 1.1813e-16 
 9834.834 1.2154e-16 
 9836.368 1.2173e-16 
 9837.902 1.0554e-16 
 9839.437 1.0054e-16 
 9840.971 1.1067e-16 
 9842.506 1.1269e-16 
 9844.040 1.2009e-16 
 9845.574 1.4134e-16 
 9847.108 1.3217e-16 
 9848.643 1.2766e-16 
 9850.177 1.2372e-16 
 9851.711 1.0374e-16 
 9853.245 9.9002e-17 
 9854.779 9.5896e-17 
 9856.314 1.1452e-16 
 9857.849 1.16e-16   
 9859.383 1.1677e-16 
 9860.917 1.1978e-16 
 9862.451 1.1989e-16 
 9863.985 1.1791e-16 
 9865.520 1.1733e-16 
 9867.054 9.9868e-17 
 9868.589 1.2146e-16 
 9870.123 1.4484e-16 
 9871.657 1.2345e-16 
 9873.191 1.1099e-16 
 9874.726 1.2143e-16 
 9876.260 1.1212e-16 
 9877.794 1.0113e-16 
 9879.328 1.1052e-16 
 9880.862 1.1122e-16 
 9882.397 1.2286e-16 
 9883.932 1.1526e-16 
 9885.466 1.1855e-16 
 9887.000 1.1668e-16 
 9888.534 1.0141e-16 
 9890.068 1.0769e-16 
 9891.603 1.266e-16  
 9893.137 1.3035e-16 
 9894.672 1.3821e-16 
 9896.206 1.2758e-16 
 9897.740 1.0307e-16 
 9899.274 1.0573e-16 
 9900.809 1.1627e-16 
 9902.343 1.191e-16  
 9903.877 1.0771e-16 
 9905.411 1.0431e-16 
 9906.946 1.0754e-16 
 9908.480 1.1657e-16 
 9910.015 1.3325e-16 
 9911.549 1.2595e-16 
 9913.083 1.2267e-16 
 9914.617 1.9004e-16 
 9916.151 1.9096e-16 
 9917.686 1.0445e-16 
 9919.220 8.1093e-17 
 9920.755 1.118e-16  
 9922.289 1.0094e-16 
 9923.823 9.9369e-17 
 9925.357 1.1812e-16 
 9926.892 1.3155e-16 
 9928.426 1.2396e-16 
 9929.960 1.1417e-16 
 9931.494 1.123e-16  
 9933.029 1.0766e-16 
 9934.563 1.1432e-16 
 9936.098 1.1353e-16 
 9937.632 1.1619e-16 
 9939.166 1.3216e-16 
 9940.700 1.1712e-16 
 9942.234 1.0984e-16 
 9943.769 1.2678e-16 
 9945.303 1.1562e-16 
 9946.838 9.889e-17  
 9948.372 9.5092e-17 
 9949.906 1.0562e-16 
 9951.440 1.0461e-16 
 9952.975 1.1605e-16 
 9954.509 1.3444e-16 
 9956.043 1.4631e-16 
 9957.577 1.2267e-16 
 9959.112 7.9514e-17 
 9960.646 1.076e-16  
 9962.181 1.3022e-16 
 9963.715 9.5231e-17 
 9965.249 7.341e-17  
 9966.783 8.5922e-17 
 9968.317 1.0705e-16 
 9969.852 1.1185e-16 
 9971.386 1.0779e-16 
 9972.921 9.519e-17  
 9974.455 9.1038e-17 
 9975.989 8.7003e-17 
 9977.523 8.6274e-17 
 9979.058 9.4062e-17 
 9980.592 9.4603e-17 
 9982.126 9.0469e-17 
 9983.660 8.9193e-17 
 9985.195 9.8697e-17 
 9986.729 1.0139e-16 
 9988.264 9.4436e-17 
 9989.798 9.4086e-17 
 9991.332 8.6397e-17 
 9992.866 8.8196e-17 
 9994.400 1.0354e-16 
 9995.935 9.1789e-17 
 9997.469 8.4002e-17 
 9999.004 8.8342e-17 
10000.538 8.4139e-17 
