Title: The Final Season Reimagined: 30 Tidal Disruption Events from the 
       ZTF-I Survey 
Authors: Hammerstein E., van Velzen S., Gezari S., Cenko S.B., Yao Y., Ward C.,
    Frederick S., Villanueva N., Somalwar J.J., Graham M.J., Kulkarni S.R., 
    Stern D., Andreoni I., Bellm E.C., Dekany R., Dhawan S., Drake A.J., 
    Fremling C., Gatkine P., Groom S.L., Ho A.Y.Q., Kasliwal M.M., 
    Karambelkar V., Kool E.C., Masci F.J., Medford M.S., Perley D.A., 
    Purdum J., van Roestel J., Sharma Y., Sollerman J., Taggart K., Yan L.
Table: Data behind Figures 14-16 -- LT spectrum of ZTF20abfcszi on 20200729
================================================================================
Byte-by-byte Description of file: ZTF20abfcszi_20200729_LT_v2.mrt
--------------------------------------------------------------------------------
   Bytes Format Units       Label  Explanations
--------------------------------------------------------------------------------
   1-  7 F7.2   0.1nm       wave   Wavelength, Angstroms
   9- 17 F9.6   ---         flux   Flux density, normalized
--------------------------------------------------------------------------------
4029.20  0.649643 
4038.40 -0.095987 
4047.60  1.264229 
4056.80  0.614526 
4066.00  1.474885 
4075.20  1.573282 
4084.40  0.425970 
4093.60  0.101390 
4102.80  1.043192 
4112.00  0.676736 
4121.20  0.819190 
4130.40  0.856088 
4139.60  0.701402 
4148.80  0.570348 
4158.00  1.093915 
4167.20  0.761110 
4176.40  0.810829 
4185.60  0.523928 
4194.80  0.351889 
4204.00  0.441363 
4213.20  1.221858 
4222.40  0.991848 
4231.60  0.769101 
4240.80  0.720655 
4250.00  0.451593 
4259.20  0.857643 
4268.40  1.116147 
4277.60  1.321448 
4286.80  1.100378 
4296.00  0.572582 
4305.20  0.831098 
4314.40  1.030646 
4323.60  0.855753 
4332.80  0.952875 
4342.00  0.860866 
4351.20  0.864663 
4360.40  0.518022 
4369.60  0.883721 
4378.80  0.709987 
4388.00  0.929189 
4397.20  0.880847 
4406.40  0.889328 
4415.60  1.019511 
4424.80  0.846925 
4434.00  0.974620 
4443.20  1.069642 
4452.40  1.026660 
4461.60  1.025908 
4470.80  1.199266 
4480.00  0.879339 
4489.20  0.851252 
4498.40  0.909261 
4507.60  0.905541 
4516.80  1.011562 
4526.00  0.895873 
4535.20  1.041521 
4544.40  0.855328 
4553.60  0.876410 
4562.80  0.946803 
4572.00  0.934146 
4581.20  1.024965 
4590.40  0.854984 
4599.60  0.896111 
4608.80  0.984155 
4618.00  0.970194 
4627.20  1.024279 
4636.40  0.892409 
4645.60  0.890121 
4654.80  0.852551 
4664.00  0.911757 
4673.20  0.958164 
4682.40  0.837200 
4691.60  0.847651 
4700.80  1.003083 
4710.00  1.089424 
4719.20  0.926278 
4728.40  0.983056 
4737.60  1.031932 
4746.80  0.926218 
4756.00  1.026811 
4765.20  0.990196 
4774.40  0.956837 
4783.60  1.051787 
4792.80  1.055948 
4802.00  1.011803 
4811.20  1.016016 
4820.40  0.986303 
4829.60  1.150089 
4838.80  1.013362 
4848.00  1.212727 
4857.20  1.106241 
4866.40  0.982581 
4875.60  1.034145 
4884.80  1.022470 
4894.00  1.099000 
4903.20  1.075782 
4912.40  1.046057 
4921.60  1.212969 
4930.80  1.246181 
4940.00  1.376343 
4949.20  1.303737 
4958.40  1.153020 
4967.60  1.271299 
4976.80  1.066113 
4986.00  1.134592 
4995.20  1.173321 
5004.40  1.080944 
5013.60  1.112253 
5022.80  1.051742 
5032.00  1.125810 
5041.20  1.104199 
5050.40  0.952331 
5059.60  1.033732 
5068.80  1.058487 
5078.00  1.105793 
5087.20  1.148603 
5096.40  1.143236 
5105.60  1.032259 
5114.80  1.048247 
5124.00  1.077186 
5133.20  1.156384 
5142.40  1.149317 
5151.60  1.119839 
5160.80  1.144979 
5170.00  1.027889 
5179.20  1.034662 
5188.40  1.009851 
5197.60  0.985172 
5206.80  1.041553 
5216.00  1.042260 
5225.20  0.962907 
5234.40  1.095729 
5243.60  1.096128 
5252.80  1.055462 
5262.00  1.039033 
5271.20  0.991209 
5280.40  1.047518 
5289.60  1.093620 
5298.80  1.056876 
5308.00  0.998309 
5317.20  1.017205 
5326.40  1.007927 
5335.60  1.001797 
5344.80  0.991208 
5354.00  0.947000 
5363.20  0.936294 
5372.40  0.980595 
5381.60  0.996775 
5390.80  1.013986 
5400.00  0.993689 
5409.20  0.984735 
5418.40  0.953833 
5427.60  0.940391 
5436.80  0.948241 
5446.00  1.010399 
5455.20  0.987136 
5464.40  0.965530 
5473.60  0.957832 
5482.80  0.926215 
5492.00  0.961910 
5501.20  0.856183 
5510.40  0.984387 
5519.60  0.891154 
5528.80  0.844184 
5538.00  0.904340 
5547.20  0.879230 
5556.40  0.932837 
5565.60  0.935522 
5574.80  0.918351 
5584.00  0.918936 
5593.20  0.990201 
5602.40  1.051764 
5611.60  0.999744 
5620.80  0.882487 
5630.00  0.930700 
5639.20  0.937650 
5648.40  1.089192 
5657.60  1.010539 
5666.80  1.049797 
5676.00  1.034142 
5685.20  0.978487 
5694.40  0.984754 
5703.60  0.984700 
5712.80  0.912299 
5722.00  0.977718 
5731.20  1.018511 
5740.40  0.982223 
5749.60  0.999908 
5758.80  0.993575 
5768.00  0.993937 
5777.20  0.980800 
5786.40  0.969793 
5795.60  1.040184 
5804.80  0.985981 
5814.00  1.048398 
5823.20  1.030092 
5832.40  1.019675 
5841.60  0.980870 
5850.80  0.979751 
5860.00  0.974863 
5869.20  0.987426 
5878.40  0.965127 
5887.60  0.906915 
5896.80  0.964040 
5906.00  0.991916 
5915.20  0.997374 
5924.40  0.979451 
5933.60  0.985053 
5942.80  0.933907 
5952.00  0.909348 
5961.20  0.940363 
5970.40  0.960988 
5979.60  0.891356 
5988.80  0.985318 
5998.00  0.994850 
6007.20  0.974326 
6016.40  0.963130 
6025.60  0.970475 
6034.80  1.015974 
6044.00  0.971667 
6053.20  1.006798 
6062.40  0.946234 
6071.60  0.992076 
6080.80  1.000751 
6090.00  0.962985 
6099.20  0.932529 
6108.40  1.034251 
6117.60  1.053327 
6126.80  1.041390 
6136.00  0.998762 
6145.20  1.012996 
6154.40  1.014858 
6163.60  0.984799 
6172.80  1.040873 
6182.00  0.998540 
6191.20  1.019990 
6200.40  0.988022 
6209.60  1.065628 
6218.80  1.070661 
6228.00  1.047982 
6237.20  1.021892 
6246.40  1.029278 
6255.60  1.032854 
6264.80  1.001411 
6274.00  0.957282 
6283.20  0.968356 
6292.40  0.902704 
6301.60  0.888414 
6310.80  0.896169 
6320.00  0.999373 
6329.20  0.959046 
6338.40  0.970490 
6347.60  0.961199 
6356.80  0.959736 
6366.00  0.960285 
6375.20  0.961357 
6384.40  1.014304 
6393.60  0.979078 
6402.80  0.957964 
6412.00  0.968284 
6421.20  0.982086 
6430.40  0.924880 
6439.60  1.014200 
6448.80  1.002127 
6458.00  1.014752 
6467.20  1.022922 
6476.40  0.994486 
6485.60  0.973656 
6494.80  0.949891 
6504.00  0.969537 
6513.20  0.915017 
6522.40  0.976122 
6531.60  0.949585 
6540.80  0.962728 
6550.00  0.922749 
6559.20  0.966060 
6568.40  0.855486 
6577.60  0.961127 
6586.80  0.942561 
6596.00  0.933218 
6605.20  0.953577 
6614.40  0.932829 
6623.60  0.864385 
6632.80  0.931305 
6642.00  0.951599 
6651.20  0.901099 
6660.40  0.907585 
6669.60  0.899405 
6678.80  0.943269 
6688.00  0.950994 
6697.20  0.906132 
6706.40  0.908194 
6715.60  0.967382 
6724.80  0.951757 
6734.00  0.932403 
6743.20  0.885064 
6752.40  0.973031 
6761.60  0.944418 
6770.80  0.977319 
6780.00  0.966361 
6789.20  0.987203 
6798.40  0.984612 
6807.60  1.039675 
6816.80  0.978156 
6826.00  0.968788 
6835.20  0.943471 
6844.40  0.961107 
6853.60  1.023589 
6862.80  0.988947 
6872.00  0.886783 
6881.20  0.737252 
6890.40  0.827265 
6899.60  0.850676 
6908.80  0.969882 
6918.00  0.971183 
6927.20  0.967353 
6936.40  0.949250 
6945.60  0.985737 
6954.80  0.925389 
6964.00  1.033063 
6973.20  1.026591 
6982.40  0.990275 
6991.60  1.019864 
7000.80  0.992844 
7010.00  0.958638 
7019.20  0.904380 
7028.40  0.913994 
7037.60  0.969230 
7046.80  1.013317 
7056.00  1.076720 
7065.20  1.008003 
7074.40  0.948278 
7083.60  1.028481 
7092.80  1.033613 
7102.00  1.028934 
7111.20  0.971225 
7120.40  1.017298 
7129.60  1.015011 
7138.80  0.967853 
7148.00  0.969752 
7157.20  0.982204 
7166.40  1.012900 
7175.60  0.909888 
7184.80  0.865949 
7194.00  0.893263 
7203.20  0.875999 
7212.40  0.916413 
7221.60  0.983405 
7230.80  0.912502 
7240.00  0.934892 
7249.20  0.888596 
7258.40  0.814748 
7267.60  0.868996 
7276.80  0.807723 
7286.00  0.866589 
7295.20  0.909459 
7304.40  0.983140 
7313.60  0.859374 
7322.80  0.923072 
7332.00  1.008277 
7341.20  0.921878 
7350.40  1.001873 
7359.60  1.012111 
7368.80  0.972227 
7378.00  0.938903 
7387.20  0.936672 
7396.40  1.020216 
7405.60  1.005430 
7414.80  0.922579 
7424.00  0.961334 
7433.20  0.924198 
7442.40  0.940759 
7451.60  0.914117 
7460.80  0.956841 
7470.00  0.924603 
7479.20  0.978309 
7488.40  0.946599 
7497.60  0.914582 
7506.80  0.990767 
7516.00  0.946529 
7525.20  0.939109 
7534.40  1.020196 
7543.60  0.999854 
7552.80  1.023798 
7562.00  1.045710 
7571.20  0.796613 
7580.40  0.906681 
7589.60  0.740889 
7598.80  0.537497 
7608.00  0.536652 
7617.20  0.428077 
7626.40  0.500836 
7635.60  0.477662 
7644.80  0.536366 
7654.00  0.686459 
7663.20  0.771570 
7672.40  0.972936 
7681.60  0.879713 
7690.80  0.870398 
7700.00  0.866711 
7709.20  0.849964 
7718.40  0.865329 
7727.60  0.841900 
7736.80  0.933009 
7746.00  0.925899 
7755.20  0.835678 
7764.40  0.853547 
7773.60  0.932811 
7782.80  0.878310 
7792.00  0.739536 
7801.20  0.748199 
7810.40  0.841410 
7819.60  0.902528 
7828.80  0.652906 
7838.00  0.596774 
7847.20  0.844248 
7856.40  0.841913 
7865.60  0.766918 
7874.80  0.974421 
7884.00  0.989813 
7893.20  0.617437 
7902.40  0.697051 
7911.60  0.699896 
7920.80  0.821224 
7930.00  1.001650 
7939.20  0.839079 
7948.40  0.738502 
7957.60  0.612154 
7966.80  0.710672 
7976.00  0.649815 
7985.20  0.969708 
7994.40  0.562050 
