# Spectrum combined from four exposures, the header of the first one is shown here
# SIMPLE  =                    T / Fits standard                                  
# BITPIX  =                   16 / Bits per pixel                                 
# NAXIS   =                    0 / Number of axes                                 
# EXTEND  =                    T / File may contain extensions                    
# ORIGIN  = 'NOAO-IRAF FITS Image Kernel July 2003' / FITS file originator        
# DATE    = '2020-09-01T07:46:56' / Date FITS file was generated                  
# IRAF-TLM= '2020-09-03T13:10:14' / Time of last modification                     
# COMMENT   FITS (Flexible Image Transport System) format is defined in 'Astronomy
# COMMENT   and Astrophysics', volume 376, page 359; bibcode: 2001A&A...376..359H 
# INSTRUME= 'GMOS-N  '           / Instrument used to acquire data                
# SEQEXVER= '20200825-60abaa92'  / Seqexec version                                
# OBJECT  = 'ZTF20abwzqzo'       / Object Name                                    
# OBSTYPE = 'OBJECT  '           / Observation type                               
# OBSCLASS= 'science '           / Observe class                                  
# GEMPRGID= 'GN-2020B-Q-901'     / Gemini programme ID                            
# OBSID   = 'GN-2020B-Q-901-49'  / Observation ID / Data label                    
# DATALAB = 'GN-2020B-Q-901-49-002' / DHS data label                              
# OBSERVER= 'B. Cooper'          / Observer                                       
# OBSERVAT= 'Gemini-North'       / Name of telescope (Gemini-North|Gemini-South)  
# TELESCOP= 'Gemini-North'       / Gemini-North                                   
# PARALLAX=                   0. / Parallax of Target                             
# RADVEL  =                   0. / Heliocentric Radial Velocity                   
# EPOCH   =                2000. / Epoch for Target coordinates                   
# EQUINOX =                2000. / Equinox of coordinate system                   
# TRKEQUIN=                2000. / Tracking equinox                               
# SSA     = 'J. Berghuis'        / SSA                                            
# RA      =     41.5137916666667 / Right Ascension                                
# DEC     =     3.32994444444444 / Declination of Target                          
# ELEVATIO=     59.1515305555556 / Current Elevation                              
# AZIMUTH =     118.751838888889 / Current Azimuth                                
# CRPA    =     4.58115293616703 / Current Cass Rotator Position Angle            
# HA      = '-01:47:12.13'       / Telescope hour angle                           
# LT      = '03:00:51.2'         / Local time at start of observation             
# TRKFRAME= 'FK5     '           / Tracking co-ordinate                           
# DECTRACK=                   0. / Differential tracking rate Dec                 
# TRKEPOCH=     59087.5288115881 / Differential tracking reference epoch          
# RATRACK =                   0. / Differential tracking rate RA                  
# FRAME   = 'FK5     '           / Target coordinate system                       
# PMDEC   =                   0. / Proper Motion in Declination                   
# PMRA    =                   0. / Proper Motion in RA                            
# WAVELENG=                5200. / Effective Target Wavelength                    
# RAWIQ   = '85-percentile'      / Raw Image Quality                              
# RAWCC   = '50-percentile'      / Raw Cloud Cover                                
# RAWWV   = 'UNKNOWN '           / Raw Water Vapour/Transparency                  
# RAWBG   = 'UNKNOWN '           / Raw Background                                 
# RAWPIREQ= 'YES     '                                                            
# RAWGEMQA= 'USABLE  '                                                            
# CGUIDMOD= 'Basic   '           / Carousel Mode                                  
# UT      = '13:00:51.7'         / UT at observation start                        
# M2BAFFLE= 'VISIBLE '           / Position of M2 baffle                          
# M2CENBAF= 'CLOSED  '           / Position of M2 central hole baffle             
# ST      = '00:59:55.7'         / Sidereal time at the start of the exposure     
# XOFFSET =    0.174951739158709 / Telescope offset in x in arcsec                
# YOFFSET =    0.476411087766997 / Telescope offset in y in arcsec                
# POFFSET =    0.175799585570408 / Telescope offset in p in arcsec                
# QOFFSET =    0.476098877645456 / Telescope offset in q in arcsec                
# RAOFFSET=   -0.261948178552181 / Telescope offset in RA in arcsec               
# DECOFFSE=     0.43469390073382 / Telescope offset in DEC in arcsec              
# RATRGOFF=                   0. / Target offset in RA in arcsec                  
# DECTRGOF=                   0. / Target offset in DEC in arcsec                 
# PA      =               308.66 / Sky Position Angle at start of exposure        
# IAA     =              179.898 / Instrument Alignment Angle                     
# SFRT2   =     178.841748696984 / Science fold rotation angle (degrees)          
# SFTILT  =              44.9296 / Science fold tilt angle (degrees)              
# SFLINEAR=               -1.997 / Science fold linear position (mm)              
# AOFOLD  = 'park-pos.'          / AO Pick-Off Mirror Position                    
# PWFS1_ST= 'parked  '           / PWFS1 probe state (frozen,guiding,parked)      
# PWFS2_ST= 'parked  '           / PWFS2 probe state (frozen,guiding,parked)      
# OIWFS_ST= 'guiding '           / OIWFS probe state (frozen,guiding,parked)      
# AOWFS_ST= 'parked  '           / AOWFS probe state (frozen,guiding,parked)      
# SCIBAND =                    1 / Science Ranking Band                           
# REQIQ   = 'Any     '           / Requested Image Quality                        
# REQCC   = '70-percentile'      / Requested Cloud Cover                          
# REQBG   = 'Any     '           / Requested Background                           
# REQWV   = 'Any     '           / Requested Water Vapour                         
# REQMAXAM=                   2. / Requested Maximum Airmass                      
# REQMINAM=                   1. / Requested Minimum Airmass                      
# NUMREQTW=                    1 / Number of Requested Timing Window REQTW entries
# REQTWS01= '2020-08-26T12:29:04.943' / Requested Timing Window 01 Start (UTC)    
# REQTWD01=               86400. / Requested Timing Window 01 Duration [seconds]  
# REQTWN01=                    0 / Requested Timing Window 01 Number of Repeats   
# REQTWP01=                   0. / Requested Timing Window 01 Repeat Period [secon
# OIARA   =             41.46215 / RA of OIWFS guide star                         
# OIADEC  =             3.324625 / Declination of OIWFS guide star                
# OIARV   =                   0. / OIWFS Heliocentric Radial Velocity             
# OIAWAVEL=                6500. / OIWFS Effective Target Wavelength              
# OIAEPOCH=                2000. / Epoch for OIWFS guide star coordinates         
# OIAEQUIN=                2000. / Equinox for OIWFS guide star coordinates       
# OIAFRAME= 'FK5     '           / OIWFS Target co-ordinate system                
# OIAOBJEC= '467-003673'         / Object Name for OIWFS, Chop A                  
# OIAPMDEC= -0.00260000000184945 / OIWFS Proper Motion in Declination             
# OIAPMRA = 4.00674350418113E-05 / OIWFS Proper Motion in RA                      
# OIAPARAL=                   0. / OIWFS Parallax of Target                       
# OIFREQ  =                 200. / OIWFS sampling frequency (Hz)                  
# HUMIDITY=                16.46 / The Relative Humidity (fraction, 0..101).      
# TAMBIENT=                 2.12 / The ambient temp (C).                          
# TAMBIEN2=               35.816 / The ambient temp (F).                          
# PRESSURE=     462.900501533147 / The atmospheric pressure (mm Hg).              
# PRESSUR2=               61715. / The atmospheric pressure (Pa).                 
# DEWPOINT=    -20.9994296995032 / The dew point (C).                             
# DEWPOIN2=     -5.7989734591057 / The dew point (F).                             
# WINDSPEE=            2.4950534 / The wind speed (m/s).                          
# WINDSPE2=     5.58127550107373 / The wind speed (mph).                          
# WINDDIRE=                65.61 / The wind direction (degrees).                  
# INPORT  =                    5 / Number of ISS port where GMOS was located      
# GMOSCC  = 'GMOS-N (V7-13)'     / GMOS components controller s/w                 
# TIME-OBS= '13:00:52.2'         / Time of observation                            
# PREIMAGE=                    F / MOS pre-imaging                                
# CONID   = 'ARC-III '           / Detector controller ID                         
# DETECTOR= 'GMOS-N + Hamamatsu' / Detector name                                  
# DEWAR   = 'Lab Cryostat'       / Dewar name                                     
# ARRYTMPD=             -102.657 / Array temperature D (Celsius)                  
# ARRYTMPA=              -96.234 / Array temperature A (Celsius)                  
# ARRYTMPB=              -95.858 / Array temperature B (Celsius)                  
# ARRYTMPC=              -95.076 / Array temperature C (Celsius)                  
# ARRYTSET=               -102.7 / Array temperature Setpoint (Celsius)           
# DETSIZE = '[1:6144,1:4224]'    / Detector size                                  
# NCCDS   =                    3 / Number of CCD chips                            
# NAMPS   =                    4 / Number of amplifiers                           
# SHUTTER = 'OPEN    '           / Shutter state during observation               
# AMPINTEG=                11880 / Amplifier integration time                     
# OBSEPOCH=     2020.65172428619 / Epoch at start of exposure                     
# TIMESYS = 'UTC     '           / Time system used                               
# DATE-OBS= '2020-08-26'         / UT Date of observation (YYYY-MM-DD)            
# GMOSTHT = 'WARNING '           / Shutter health                                 
# NSUBEXP =                    1 / Number of sub exposures                        
# UTSTART = '13:00:57.6167'      / UT at observation start                        
# UTEND   = '13:10:57.6167'      / UT at observation end                          
# EXPTIME =                 600. / Exposure time in seconds                       
# ELAPSED =                 600. / Elapsed observation time in seconds            
# DARKTIME=     621.083354949951 / Dark current integration in seconds            
# MASKID  =             10005354 / Mask/IFU barcode                               
# MASKNAME= '1.0arcsec'          / Mask name                                      
# MASKTYP =                    1 / Mask/IFU type (0=none/-1=IFU/1=mask)           
# MASKLOC =                    0 / Mask/IFU location (-1=unknown/0=FP/1=cassette) 
# FILTER1 = 'open1-6 '           / Filter 1 name                                  
# FILTID1 =             20000018 / Filter 1 barcode                               
# FILTER2 = 'open2-8 '           / Filter 2 name                                  
# FILTID2 =             20000008 / Filter 2 barcode                               
# GRATING = 'B600+_G5307'        / Grating name                                   
# GRATID  =             30000018 / Grating barcode                                
# GRWLEN  =                 520. / Grating wavelength at slit (nm)                
# CENTWAVE=                 520. / Central wavelength (nm)                        
# GRORDER =                    1 / Grating order                                  
# GRTILT  =     55.0884895324707 / Grating tilt angle (degrees)                   
# GRSTEP  =     5887.98372465079 / Requested grating motor step position          
# DTAX    =                  84. / Detector translation X position (microns)      
# DTAY    =                  92. / Detector translation Y position (microns)      
# DTAZ    =                1862. / Detector translation Z position (microns)      
# DTAZST  =                1862. / Focus at observation start (microns)           
# DTAZEN  =                1862. / Focus at observation end (microns)             
# DTAZME  =                1862. / Mean focus during observation (microns)        
# DTMODE  = 'FOLLOW-XY'          / Detector translation stage mode                
# ADCMODE = 'STOP    '           / ADC mode                                       
# GMOSDC  = 'gmosdc-6.10'        / GMOS detector controller s/w                   
# DETTYPE = 'S10892-N'           / Detector array type                            
# DETID   = 'BI13-20-4k-1,BI12-09-4k-2,BI13-18-4k-2' / Chip IDs                   
# EXPOSURE=                 600. / Requested exposure time in seconds             
# ADCUSED =                    1 / ADC used? (0=yes/1=no)                         
# DETNROI =                    1 / No. regions of interest                        
# ADCENPST=                   0. / Start entrance prism angle of ADC              
# ADCENPEN=                   0. / End entrance prism angle of ADC                
# ADCENPME=                   0. / Mean entrance prism angle of ADC               
# ADCEXPST=                   0. / Start exit prism angle of ADC                  
# ADCEXPEN=                   0. / End exit prism angle of ADC                    
# ADCEXPME=                   0. / Mean exit prism angle of ADC                   
# ADCWLEN1=                   0. / Lower wavelength for ADC calculation           
# ADCWLEN2=                   0. / Upper wavelength for ADC calculation           
# DETRO1X =                    1 / ROI 1 X start                                  
# DETRO1XS=                 3072 / ROI 1 X size                                   
# DETRO1Y =                    1 / ROI 1 Y start                                  
# DETRO1YS=                 2112 / ROI 1 Y size                                   
# AIRMASS =     1.15188990932019 / Mean airmass for the observation               
# AMSTART =     1.16440957624516 / Airmass at start of exposure                   
# AMEND   =     1.13985420517773 / Airmass at end of exposure                     
# PROP_MD =                    F / Proprietary Metadata                           
# RELEASE = '2021-08-26'         / End of proprietary period YYY-MM-DD            
# NSCIEXT =                    1 / Number of science extensions                   
# PIXSCALE=               0.1614 / Pixel scale in Y in arcsec/pixel               
# NEXTEND =                    2 / Number of extensions                           
# OBSMODE = 'LONGSLIT'           / Observing mode (IMAGE|IFU|MOS|LONGSLIT)        
# GEM-TLM = '2020-09-03T13:09:46' / UT Last modification with GEMINI              
# GPREPARE= '2020-09-01T07:46:56' / UT Time stamp for GPREPARE                    
# TRIMMED = 'yes     '           / Overscan section trimmed                       
# GGAIN   = '2020-09-01T07:47:14' / UT Time stamp for GGAIN                       
# BIASIM  = 'zero    '           / Bias image used by GIREDUCE                    
# GIREDUCE= '2020-09-01T07:47:14' / UT Time stamp for GIREDUCE                    
# CTYPE1  = 'RA---TAN'           / R.A. in tangent plane projection               
# CTYPE2  = 'DEC--TAN'           / DEC. in tangent plane projection               
# CRPIX1  =        1568.29696921 / Ref pix of axis 1                              
# CRPIX2  =     1044.27820467852 / Ref pix of axis 2                              
# CRVAL1  =     41.5137187491146 / RA at Ref pix in decimal degrees               
# CRVAL2  =     3.33006526281499 / DEC at Ref pix in decimal degrees              
# CD1_1   = -2.80958734426091E-05 / WCS matrix element 1 1                        
# CD1_2   = 3.51226016704096E-05 / WCS matrix element 1 2                         
# CD2_1   = -3.51150649853661E-05 / WCS matrix element 2 1                        
# CD2_2   = -2.80978726385834E-05 / WCS matrix element 2 2                        
# CCDSUM  = '2 2     '           / CCD sum                                        
# GAIN    =                  1.0 / Amplifier gain                                 
# GAINMULT=                 1.65 / Gain multiplication                            
# RDNOISE =                 3.98 / Readout noise                                  
# RADECSYS= 'FK5     '           / R.A./DEC. coordinate system reference          
# EQUINOX =                2000. / Equinox of coordinate system                   
# MJD-OBS =     59087.5430774519 / MJD of start of obseration                     
# DISPAXIS=                    1 / Dispersion Axis                                
# GMOSAIC = '2020-09-01T07:47:15' / UT Time stamp for GMOSAIC                     
# GMSINTER= 'linear  '           / Interpolant used by GMOSAIC                    
# WMEF    = '2020-09-03T13:09:46' / UT Time stamp for WMEF                        
# GSFLATIM= 'flat1.fits'         / Flatfield Image used by gsreduce               
# GSREDUCE= '2020-09-01T07:47:15' / UT Time stamp for GSREDUCE                    
# GSTRANSF= '2020-09-01T08:19:26' / UT Time stamp for GSTRANSFORM                 
# GSEXTRAC= '2020-09-01T10:49:41' / UT Time stamp for GSEXTRACT                   
# GSCALIBR= '2020-09-03T13:09:46' / UT Time stamp for GSCALIBRATE                 
# END
3626.7893    1.3630e-16
3627.8043    1.3486e-16
3628.8192    1.3258e-16
3629.8342    1.3129e-16
3630.8491    1.2962e-16
3631.8641    1.2944e-16
3632.8791    1.2870e-16
3633.8940    1.2956e-16
3634.9090    1.3073e-16
3635.9240    1.3043e-16
3636.9389    1.3313e-16
3637.9539    1.3681e-16
3638.9688    1.3977e-16
3639.9838    1.3836e-16
3640.9988    1.2836e-16
3642.0137    1.3221e-16
3643.0287    1.2257e-16
3644.0437    1.0850e-16
3645.0586    1.3164e-16
3646.0736    1.3763e-16
3647.0885    1.1000e-16
3648.1035    8.8545e-17
3649.1185    1.3158e-16
3650.1334    1.1506e-16
3651.1484    1.0974e-16
3652.1633    1.0698e-16
3653.1783    1.1519e-16
3654.1933    1.1166e-16
3655.2082    1.0461e-16
3656.2232    9.3898e-17
3657.2382    9.1569e-17
3658.2531    9.6762e-17
3659.2681    9.7981e-17
3660.2830    1.0097e-16
3661.2980    1.0694e-16
3662.3130    8.7575e-17
3663.3279    9.1465e-17
3664.3429    9.1564e-17
3665.3579    8.3518e-17
3666.3728    1.0207e-16
3667.3878    9.7174e-17
3668.4027    8.2457e-17
3669.4177    1.0492e-16
3670.4327    8.9966e-17
3671.4476    6.2024e-17
3672.4626    7.3693e-17
3673.4776    6.3254e-17
3674.4925    3.7530e-17
3675.5075    5.2767e-17
3676.5224    8.0726e-17
3677.5374    7.5844e-17
3678.5524    7.3262e-17
3679.5673    7.4804e-17
3680.5823    4.1020e-17
3681.5972    3.9981e-17
3682.6122    4.3756e-17
3683.6272    5.0577e-17
3684.6421    6.0582e-17
3685.6571    6.2426e-17
3686.6721    6.9391e-17
3687.6870    5.7720e-17
3688.7020    6.2300e-17
3689.7169    7.6018e-17
3690.7319    8.7216e-17
3691.7469    6.8652e-17
3692.7618    5.9593e-17
3693.7768    7.2843e-17
3694.7918    7.5290e-17
3695.8067    6.7344e-17
3696.8217    5.7811e-17
3697.8366    4.1593e-17
3698.8516    4.1065e-17
3699.8666    5.2578e-17
3700.8815    4.2969e-17
3701.8965    7.6825e-17
3702.9115    8.8093e-17
3703.9264    4.1110e-17
3704.9414    5.2528e-17
3705.9563    7.8586e-17
3706.9713    7.7696e-17
3707.9863    9.4124e-17
3709.0012    8.9784e-17
3710.0162    7.1183e-17
3711.0311    9.4382e-17
3712.0461    1.0195e-16
3713.0611    5.1171e-17
3714.0760    4.8116e-17
3715.0910    6.1406e-17
3716.1060    6.0046e-17
3717.1209    7.1350e-17
3718.1359    7.0135e-17
3719.1508    6.5127e-17
3720.1658    4.5808e-17
3721.1808    4.3455e-17
3722.1957    4.5100e-17
3723.2107    5.1612e-17
3724.2257    6.4702e-17
3725.2406    6.3545e-17
3726.2556    6.6137e-17
3727.2705    6.0906e-17
3728.2855    4.7374e-17
3729.3005    5.6987e-17
3730.3154    6.2856e-17
3731.3304    6.5425e-17
3732.3453    7.0689e-17
3733.3603    7.0340e-17
3734.3753    9.1353e-17
3735.3902    8.5923e-17
3736.4052    6.6071e-17
3737.4202    6.1459e-17
3738.4351    6.2778e-17
3739.4501    4.6427e-17
3740.4650    4.8874e-17
3741.4800    5.3911e-17
3742.4950    5.1712e-18
3743.5099    1.1715e-17
3744.5249    2.4944e-17
3745.5399    4.3237e-17
3746.5548    5.1042e-17
3747.5698    5.8166e-17
3748.5847    6.2113e-17
3749.5997    6.8486e-17
3750.6147    6.4031e-17
3751.6296    8.1780e-17
3752.6446    6.7272e-17
3753.6595    4.6469e-17
3754.6745    3.0090e-17
3755.6895    5.8776e-17
3756.7044    6.6365e-17
3757.7194    6.9005e-17
3758.7344    6.8188e-17
3759.7493    4.8052e-17
3760.7643    4.3035e-17
3761.7792    5.7249e-17
3762.7942    4.4280e-17
3763.8092    2.1511e-17
3764.8241    2.7493e-17
3765.8391    4.2295e-17
3766.8541    6.3997e-17
3767.8690    5.6945e-17
3768.8840    3.0841e-17
3769.8989    2.9019e-17
3770.9139    4.7530e-17
3771.9289    7.1931e-17
3772.9438    6.3097e-17
3773.9588    5.7414e-17
3774.9738    6.4814e-17
3775.9887    7.0264e-17
3777.0037    3.7833e-17
3778.0186    5.1161e-17
3779.0336    6.5889e-17
3780.0486    9.4927e-17
3781.0635    8.7670e-17
3782.0785    7.6321e-17
3783.0934    7.5684e-17
3784.1084    5.7727e-17
3785.1234    3.2639e-17
3786.1383    3.6203e-17
3787.1533    4.1754e-17
3788.1683    5.6526e-17
3789.1832    6.8883e-17
3790.1982    6.8765e-17
3791.2131    5.1160e-17
3792.2281    6.1129e-17
3793.2431    8.1198e-17
3794.2580    7.1606e-17
3795.2730    5.3645e-17
3796.2880    6.2476e-17
3797.3029    8.2347e-17
3798.3179    6.9750e-17
3799.3328    5.9899e-17
3800.3478    6.0436e-17
3801.3628    5.9554e-17
3802.3777    6.7790e-17
3803.3927    8.2470e-17
3804.4077    9.0685e-17
3805.4226    7.8427e-17
3806.4376    7.0127e-17
3807.4525    5.1087e-17
3808.4675    5.7132e-17
3809.4825    5.6276e-17
3810.4974    5.0520e-17
3811.5124    4.2676e-17
3812.5273    4.2557e-17
3813.5423    4.4422e-17
3814.5573    5.6984e-17
3815.5722    5.8431e-17
3816.5872    3.8309e-17
3817.6022    4.8638e-17
3818.6171    5.5810e-17
3819.6321    5.2551e-17
3820.6470    5.4074e-17
3821.6620    5.1220e-17
3822.6770    3.7916e-17
3823.6919    4.1213e-17
3824.7069    5.0726e-17
3825.7219    6.1513e-17
3826.7368    6.0264e-17
3827.7518    5.6931e-17
3828.7667    5.5339e-17
3829.7817    4.9483e-17
3830.7967    5.6935e-17
3831.8116    5.4934e-17
3832.8266    6.0380e-17
3833.8415    6.5814e-17
3834.8565    7.3993e-17
3835.8715    6.8957e-17
3836.8864    5.3121e-17
3837.9014    5.0153e-17
3838.9164    7.3610e-17
3839.9313    6.7081e-17
3840.9463    5.7123e-17
3841.9612    5.6285e-17
3842.9762    5.5426e-17
3843.9912    6.8426e-17
3845.0061    6.7062e-17
3846.0211    5.4594e-17
3847.0361    5.4449e-17
3848.0510    5.7201e-17
3849.0660    5.9618e-17
3850.0809    4.1589e-17
3851.0959    4.4467e-17
3852.1109    5.5814e-17
3853.1258    5.2178e-17
3854.1408    5.0589e-17
3855.1557    3.8069e-17
3856.1707    4.6384e-17
3857.1857    5.8779e-17
3858.2006    5.2206e-17
3859.2156    5.2211e-17
3860.2306    5.1151e-17
3861.2455    5.5945e-17
3862.2605    6.6374e-17
3863.2754    6.9581e-17
3864.2904    5.2480e-17
3865.3054    4.6191e-17
3866.3203    5.0406e-17
3867.3353    5.1007e-17
3868.3503    4.9947e-17
3869.3652    4.3410e-17
3870.3802    4.4105e-17
3871.3951    4.8254e-17
3872.4101    4.9304e-17
3873.4251    5.6518e-17
3874.4400    5.5614e-17
3875.4550    5.1968e-17
3876.4700    4.9255e-17
3877.4849    4.1873e-17
3878.4999    5.0142e-17
3879.5148    4.7613e-17
3880.5298    5.2311e-17
3881.5448    6.2974e-17
3882.5597    5.8461e-17
3883.5747    5.8137e-17
3884.5896    5.2577e-17
3885.6046    5.0174e-17
3886.6196    5.7578e-17
3887.6345    5.2344e-17
3888.6495    5.2815e-17
3889.6645    5.2788e-17
3890.6794    5.3300e-17
3891.6944    6.0069e-17
3892.7093    6.3269e-17
3893.7243    6.1449e-17
3894.7393    4.9748e-17
3895.7542    4.3429e-17
3896.7692    4.2339e-17
3897.7842    5.2241e-17
3898.7991    5.9746e-17
3899.8141    6.6427e-17
3900.8290    5.8656e-17
3901.8440    5.2646e-17
3902.8590    5.4863e-17
3903.8739    4.8503e-17
3904.8889    5.7076e-17
3905.9038    6.9791e-17
3906.9188    5.7795e-17
3907.9338    5.2132e-17
3908.9487    5.2639e-17
3909.9637    5.1003e-17
3910.9787    4.3859e-17
3911.9936    4.0535e-17
3913.0086    4.3732e-17
3914.0235    4.3832e-17
3915.0385    4.8093e-17
3916.0535    4.8492e-17
3917.0684    4.6177e-17
3918.0834    5.1394e-17
3919.0984    5.1293e-17
3920.1133    5.0414e-17
3921.1283    4.8410e-17
3922.1432    5.1808e-17
3923.1582    5.6395e-17
3924.1732    4.3955e-17
3925.1881    3.9314e-17
3926.2031    4.6364e-17
3927.2181    5.1093e-17
3928.2330    5.0122e-17
3929.2480    4.7388e-17
3930.2629    4.2030e-17
3931.2779    4.3032e-17
3932.2929    4.2271e-17
3933.3078    4.4537e-17
3934.3228    3.4492e-17
3935.3377    4.3973e-17
3936.3527    4.6569e-17
3937.3677    4.6990e-17
3938.3826    4.4718e-17
3939.3976    4.5427e-17
3940.4126    4.8265e-17
3941.4275    5.0976e-17
3942.4425    4.9296e-17
3943.4574    4.8877e-17
3944.4724    4.6116e-17
3945.4874    4.5439e-17
3946.5023    4.4689e-17
3947.5173    4.5257e-17
3948.5323    4.1259e-17
3949.5472    3.8856e-17
3950.5622    4.4808e-17
3951.5771    4.3602e-17
3952.5921    4.3817e-17
3953.6071    4.2931e-17
3954.6220    3.9276e-17
3955.6370    3.8025e-17
3956.6519    3.9188e-17
3957.6669    3.9459e-17
3958.6819    3.7624e-17
3959.6968    4.1548e-17
3960.7118    4.5955e-17
3961.7268    4.4789e-17
3962.7417    4.2643e-17
3963.7567    3.3508e-17
3964.7716    3.2878e-17
3965.7866    4.0695e-17
3966.8016    4.9875e-17
3967.8165    5.2851e-17
3968.8315    4.6817e-17
3969.8465    3.7655e-17
3970.8614    3.5387e-17
3971.8764    4.2772e-17
3972.8913    4.8984e-17
3973.9063    4.4960e-17
3974.9213    5.0509e-17
3975.9362    4.6172e-17
3976.9512    4.3603e-17
3977.9662    4.2919e-17
3978.9811    5.1991e-17
3979.9961    5.2796e-17
3981.0110    5.1739e-17
3982.0260    5.2494e-17
3983.0410    5.1693e-17
3984.0559    4.7033e-17
3985.0709    4.6711e-17
3986.0858    5.6472e-17
3987.1008    5.2264e-17
3988.1158    4.3996e-17
3989.1307    4.3568e-17
3990.1457    4.0465e-17
3991.1607    3.7736e-17
3992.1756    4.4803e-17
3993.1906    4.6429e-17
3994.2055    4.3179e-17
3995.2205    4.4326e-17
3996.2355    3.5753e-17
3997.2504    4.1438e-17
3998.2654    4.7810e-17
3999.2804    4.5369e-17
4000.2953    5.0531e-17
4001.3103    4.3936e-17
4002.3252    3.7718e-17
4003.3402    4.2662e-17
4004.3552    4.4867e-17
4005.3701    4.9369e-17
4006.3851    4.8359e-17
4007.4000    4.2989e-17
4008.4150    4.8021e-17
4009.4300    5.4241e-17
4010.4449    5.5025e-17
4011.4599    5.3643e-17
4012.4749    4.5816e-17
4013.4898    4.3008e-17
4014.5048    4.1301e-17
4015.5197    4.0730e-17
4016.5347    4.4677e-17
4017.5497    4.0406e-17
4018.5646    3.9327e-17
4019.5796    4.1807e-17
4020.5946    3.8226e-17
4021.6095    4.7261e-17
4022.6245    4.0317e-17
4023.6394    3.3555e-17
4024.6544    3.7481e-17
4025.6694    3.8339e-17
4026.6843    3.8626e-17
4027.6993    4.1378e-17
4028.7143    4.3425e-17
4029.7292    4.2977e-17
4030.7442    5.0468e-17
4031.7591    4.8971e-17
4032.7741    4.6643e-17
4033.7891    4.2777e-17
4034.8040    4.0797e-17
4035.8190    4.6631e-17
4036.8339    4.4223e-17
4037.8489    4.0984e-17
4038.8639    4.0743e-17
4039.8788    3.9662e-17
4040.8938    4.2542e-17
4041.9088    4.0409e-17
4042.9237    4.2762e-17
4043.9387    4.3078e-17
4044.9536    4.5111e-17
4045.9686    4.8949e-17
4046.9836    4.5265e-17
4047.9985    4.3281e-17
4049.0135    4.1471e-17
4050.0285    4.2172e-17
4051.0434    4.7597e-17
4052.0584    5.0545e-17
4053.0733    4.6214e-17
4054.0883    4.0999e-17
4055.1033    4.5531e-17
4056.1182    4.2606e-17
4057.1332    4.0841e-17
4058.1481    4.1591e-17
4059.1631    4.2192e-17
4060.1781    3.9204e-17
4061.1930    3.9232e-17
4062.2080    3.9087e-17
4063.2230    4.0193e-17
4064.2379    4.2337e-17
4065.2529    4.3568e-17
4066.2678    4.6310e-17
4067.2828    4.3188e-17
4068.2978    3.1865e-17
4069.3127    3.5709e-17
4070.3277    3.7315e-17
4071.3427    4.2220e-17
4072.3576    4.4600e-17
4073.3726    4.4004e-17
4074.3875    4.0793e-17
4075.4025    4.1134e-17
4076.4175    4.4646e-17
4077.4324    4.1613e-17
4078.4474    3.8337e-17
4079.4624    3.8087e-17
4080.4773    4.0757e-17
4081.4923    4.1931e-17
4082.5072    4.1574e-17
4083.5222    3.5067e-17
4084.5372    3.3938e-17
4085.5521    3.6798e-17
4086.5671    4.2389e-17
4087.5820    4.6498e-17
4088.5970    4.3176e-17
4089.6120    4.2460e-17
4090.6269    4.0954e-17
4091.6419    3.6854e-17
4092.6569    4.0892e-17
4093.6718    4.3183e-17
4094.6868    4.1448e-17
4095.7017    3.9871e-17
4096.7167    4.4597e-17
4097.7317    4.3705e-17
4098.7466    4.6921e-17
4099.7616    4.3839e-17
4100.7766    4.5163e-17
4101.7915    4.7155e-17
4102.8065    4.4289e-17
4103.8214    3.9351e-17
4104.8364    4.2919e-17
4105.8514    4.3325e-17
4106.8663    4.6254e-17
4107.8813    5.0626e-17
4108.8962    5.0690e-17
4109.9112    4.8862e-17
4110.9262    4.6112e-17
4111.9411    5.1137e-17
4112.9561    5.1413e-17
4113.9711    5.3968e-17
4114.9860    5.1779e-17
4116.0010    4.3444e-17
4117.0159    4.2556e-17
4118.0309    4.6959e-17
4119.0459    4.4338e-17
4120.0608    4.6028e-17
4121.0758    4.7993e-17
4122.0908    4.3119e-17
4123.1057    4.2247e-17
4124.1207    4.7568e-17
4125.1356    4.6042e-17
4126.1506    3.9095e-17
4127.1656    4.0856e-17
4128.1805    4.8235e-17
4129.1955    4.9189e-17
4130.2105    4.0288e-17
4131.2254    4.1363e-17
4132.2404    4.4357e-17
4133.2553    4.2419e-17
4134.2703    4.2935e-17
4135.2853    4.7918e-17
4136.3002    4.6697e-17
4137.3152    4.4381e-17
4138.3301    4.4951e-17
4139.3451    4.2933e-17
4140.3601    3.8523e-17
4141.3750    4.0787e-17
4142.3900    4.3727e-17
4143.4050    4.2556e-17
4144.4199    4.5653e-17
4145.4349    4.4656e-17
4146.4498    4.6295e-17
4147.4648    4.7891e-17
4148.4798    4.6516e-17
4149.4947    4.2578e-17
4150.5097    4.2928e-17
4151.5247    4.7485e-17
4152.5396    4.9508e-17
4153.5546    4.5130e-17
4154.5695    4.5019e-17
4155.5845    3.8880e-17
4156.5995    4.1673e-17
4157.6144    4.5621e-17
4158.6294    4.4337e-17
4159.6443    4.2658e-17
4160.6593    3.6414e-17
4161.6743    3.7768e-17
4162.6892    3.6842e-17
4163.7042    3.9959e-17
4164.7192    4.5091e-17
4165.7341    4.1107e-17
4166.7491    4.2554e-17
4167.7640    4.5556e-17
4168.7790    3.9609e-17
4169.7940    3.9007e-17
4170.8089    4.3764e-17
4171.8239    5.0260e-17
4172.8389    4.6652e-17
4173.8538    4.5978e-17
4174.8688    4.6710e-17
4175.8837    4.7929e-17
4176.8987    4.9976e-17
4177.9137    4.5489e-17
4178.9286    4.3933e-17
4179.9436    4.8143e-17
4180.9586    4.4326e-17
4181.9735    4.2384e-17
4182.9885    3.9382e-17
4184.0034    3.9910e-17
4185.0184    4.2150e-17
4186.0334    4.6949e-17
4187.0483    5.0272e-17
4188.0633    4.4294e-17
4189.0782    4.0732e-17
4190.0932    3.7606e-17
4191.1082    3.7560e-17
4192.1231    4.1515e-17
4193.1381    3.7696e-17
4194.1531    3.7258e-17
4195.1680    3.8932e-17
4196.1830    3.6764e-17
4197.1979    4.0561e-17
4198.2129    4.4737e-17
4199.2279    4.5392e-17
4200.2428    4.1328e-17
4201.2578    3.5048e-17
4202.2728    3.9706e-17
4203.2877    4.5702e-17
4204.3027    4.8040e-17
4205.3176    4.4320e-17
4206.3326    4.0947e-17
4207.3476    4.1985e-17
4208.3625    4.1888e-17
4209.3775    4.5268e-17
4210.3924    3.8815e-17
4211.4074    3.6421e-17
4212.4224    4.0617e-17
4213.4373    4.3395e-17
4214.4523    4.6209e-17
4215.4673    4.1980e-17
4216.4822    4.1432e-17
4217.4972    4.1129e-17
4218.5121    4.0545e-17
4219.5271    3.9913e-17
4220.5421    3.9770e-17
4221.5570    4.4299e-17
4222.5720    4.2141e-17
4223.5870    4.4144e-17
4224.6019    4.0889e-17
4225.6169    3.8843e-17
4226.6318    4.0685e-17
4227.6468    4.3447e-17
4228.6618    4.2742e-17
4229.6767    4.7819e-17
4230.6917    4.6249e-17
4231.7067    4.8960e-17
4232.7216    4.3848e-17
4233.7366    4.6056e-17
4234.7515    4.7662e-17
4235.7665    4.8388e-17
4236.7815    4.8498e-17
4237.7964    4.6634e-17
4238.8114    4.3091e-17
4239.8263    4.1706e-17
4240.8413    4.1389e-17
4241.8563    3.9991e-17
4242.8712    3.9194e-17
4243.8862    3.9713e-17
4244.9012    3.9996e-17
4245.9161    4.4698e-17
4246.9311    4.9290e-17
4247.9460    4.5513e-17
4248.9610    4.0809e-17
4249.9760    3.6068e-17
4250.9909    3.7014e-17
4252.0059    3.8473e-17
4253.0209    3.8148e-17
4254.0358    3.8417e-17
4255.0508    3.7683e-17
4256.0657    3.9356e-17
4257.0807    4.3894e-17
4258.0957    4.3381e-17
4259.1106    4.1107e-17
4260.1256    4.0953e-17
4261.1406    4.2643e-17
4262.1555    4.0254e-17
4263.1705    3.7839e-17
4264.1854    3.9201e-17
4265.2004    3.8046e-17
4266.2154    3.9475e-17
4267.2303    3.9013e-17
4268.2453    3.5002e-17
4269.2602    3.7375e-17
4270.2752    4.1739e-17
4271.2902    4.1734e-17
4272.3051    4.1989e-17
4273.3201    3.4885e-17
4274.3351    3.9781e-17
4275.3500    4.4175e-17
4276.3650    4.5531e-17
4277.3799    4.0150e-17
4278.3949    4.3825e-17
4279.4099    4.2296e-17
4280.4248    4.0600e-17
4281.4398    4.6758e-17
4282.4548    4.2450e-17
4283.4697    3.9666e-17
4284.4847    4.0825e-17
4285.4996    4.0458e-17
4286.5146    4.1197e-17
4287.5296    4.5784e-17
4288.5445    4.5901e-17
4289.5595    4.1580e-17
4290.5744    3.7986e-17
4291.5894    3.8313e-17
4292.6044    3.8742e-17
4293.6193    3.8632e-17
4294.6343    4.1801e-17
4295.6493    4.0204e-17
4296.6642    3.8414e-17
4297.6792    4.1874e-17
4298.6941    4.5443e-17
4299.7091    4.8574e-17
4300.7241    4.4220e-17
4301.7390    4.1096e-17
4302.7540    4.2037e-17
4303.7690    4.1405e-17
4304.7839    3.7126e-17
4305.7989    3.4092e-17
4306.8138    3.8547e-17
4307.8288    3.9593e-17
4308.8438    3.9060e-17
4309.8587    4.2940e-17
4310.8737    4.0735e-17
4311.8886    3.8942e-17
4312.9036    4.2362e-17
4313.9186    4.1654e-17
4314.9335    4.2992e-17
4315.9485    4.0475e-17
4316.9635    3.8239e-17
4317.9784    3.9527e-17
4318.9934    4.1598e-17
4320.0083    4.2533e-17
4321.0233    3.8721e-17
4322.0383    3.8058e-17
4323.0532    3.9386e-17
4324.0682    3.6776e-17
4325.0832    3.6993e-17
4326.0981    3.7376e-17
4327.1131    3.8121e-17
4328.1280    3.9067e-17
4329.1430    3.7726e-17
4330.1580    3.7970e-17
4331.1729    3.6155e-17
4332.1879    3.7265e-17
4333.2029    3.5831e-17
4334.2178    3.6749e-17
4335.2328    4.0686e-17
4336.2477    3.9291e-17
4337.2627    3.4077e-17
4338.2777    3.8339e-17
4339.2926    4.6208e-17
4340.3076    4.6822e-17
4341.3225    4.3771e-17
4342.3375    4.5978e-17
4343.3525    3.6544e-17
4344.3674    3.9862e-17
4345.3824    4.3943e-17
4346.3974    4.6373e-17
4347.4123    4.7053e-17
4348.4273    5.0449e-17
4349.4422    4.3944e-17
4350.4572    3.9046e-17
4351.4722    4.2824e-17
4352.4871    4.6165e-17
4353.5021    4.2029e-17
4354.5171    4.0260e-17
4355.5320    4.1241e-17
4356.5470    4.1644e-17
4357.5619    4.4637e-17
4358.5769    4.4679e-17
4359.5919    4.5741e-17
4360.6068    4.9256e-17
4361.6218    4.8141e-17
4362.6367    4.6138e-17
4363.6517    4.5782e-17
4364.6667    3.9507e-17
4365.6816    4.4708e-17
4366.6966    4.6930e-17
4367.7116    3.8907e-17
4368.7265    3.5537e-17
4369.7415    3.8111e-17
4370.7564    4.2385e-17
4371.7714    4.3883e-17
4372.7864    5.0300e-17
4373.8013    4.5853e-17
4374.8163    4.0683e-17
4375.8313    3.8952e-17
4376.8462    3.8874e-17
4377.8612    4.1821e-17
4378.8761    4.7447e-17
4379.8911    4.7112e-17
4380.9061    4.4538e-17
4381.9210    4.2919e-17
4382.9360    3.9306e-17
4383.9510    3.7946e-17
4384.9659    3.9556e-17
4385.9809    3.8080e-17
4386.9958    3.9514e-17
4388.0108    4.2908e-17
4389.0258    4.4254e-17
4390.0407    4.4040e-17
4391.0557    3.9299e-17
4392.0706    3.5021e-17
4393.0856    3.6841e-17
4394.1006    4.2930e-17
4395.1155    4.5135e-17
4396.1305    4.2384e-17
4397.1455    4.0188e-17
4398.1604    3.4927e-17
4399.1754    3.5284e-17
4400.1903    3.8268e-17
4401.2053    3.9102e-17
4402.2203    3.5335e-17
4403.2352    4.2025e-17
4404.2502    4.0973e-17
4405.2652    4.1862e-17
4406.2801    3.7779e-17
4407.2951    4.0546e-17
4408.3100    3.9117e-17
4409.3250    4.1253e-17
4410.3400    4.1615e-17
4411.3549    3.5936e-17
4412.3699    3.2703e-17
4413.3848    3.9696e-17
4414.3998    4.5743e-17
4415.4148    4.6745e-17
4416.4297    4.0122e-17
4417.4447    3.7953e-17
4418.4597    4.1073e-17
4419.4746    4.1019e-17
4420.4896    4.0215e-17
4421.5045    3.8474e-17
4422.5195    3.1637e-17
4423.5345    3.8844e-17
4424.5494    3.9836e-17
4425.5644    3.7936e-17
4426.5794    4.4551e-17
4427.5943    4.9089e-17
4428.6093    4.4174e-17
4429.6242    3.8334e-17
4430.6392    3.5947e-17
4431.6542    3.5515e-17
4432.6691    3.3294e-17
4433.6841    3.8195e-17
4434.6991    4.0388e-17
4435.7140    3.6950e-17
4436.7290    3.8573e-17
4437.7439    3.9430e-17
4438.7589    3.5985e-17
4439.7739    3.7847e-17
4440.7888    3.7093e-17
4441.8038    3.9008e-17
4442.8187    3.6771e-17
4443.8337    3.6446e-17
4444.8487    3.8771e-17
4445.8636    3.9377e-17
4446.8786    3.8929e-17
4447.8936    3.9552e-17
4448.9085    4.1654e-17
4449.9235    4.1381e-17
4450.9384    4.0372e-17
4451.9534    4.0093e-17
4452.9684    4.0069e-17
4453.9833    4.0414e-17
4454.9983    3.6363e-17
4456.0133    3.5861e-17
4457.0282    4.0603e-17
4458.0432    4.0835e-17
4459.0581    3.5943e-17
4460.0731    3.6060e-17
4461.0881    3.8186e-17
4462.1030    3.7690e-17
4463.1180    3.6780e-17
4464.1330    3.8394e-17
4465.1479    3.8556e-17
4466.1629    3.6475e-17
4467.1778    3.8447e-17
4468.1928    3.6905e-17
4469.2078    3.6963e-17
4470.2227    3.8858e-17
4471.2377    4.0612e-17
4472.2526    3.6897e-17
4473.2676    3.0003e-17
4474.2826    3.6254e-17
4475.2975    4.1424e-17
4476.3125    3.7763e-17
4477.3275    3.7395e-17
4478.3424    4.0123e-17
4479.3574    3.8210e-17
4480.3723    3.4005e-17
4481.3873    3.4318e-17
4482.4023    3.9256e-17
4483.4172    4.3789e-17
4484.4322    4.1843e-17
4485.4472    3.7004e-17
4486.4621    3.6440e-17
4487.4771    4.4422e-17
4488.4920    4.2897e-17
4489.5070    4.0079e-17
4490.5220    4.1963e-17
4491.5369    3.9535e-17
4492.5519    4.3421e-17
4493.5668    4.0371e-17
4494.5818    3.3778e-17
4495.5968    3.3756e-17
4496.6117    3.7841e-17
4497.6267    3.7242e-17
4498.6417    4.2168e-17
4499.6566    4.2431e-17
4500.6716    4.1214e-17
4501.6865    3.8543e-17
4502.7015    3.7518e-17
4503.7165    3.7190e-17
4504.7314    3.4223e-17
4505.7464    3.6046e-17
4506.7614    3.7551e-17
4507.7763    3.9820e-17
4508.7913    4.4808e-17
4509.8062    4.0746e-17
4510.8212    4.2695e-17
4511.8362    4.3964e-17
4512.8511    4.1754e-17
4513.8661    4.2511e-17
4514.8810    4.3319e-17
4515.8960    3.9060e-17
4516.9110    3.4841e-17
4517.9259    3.6993e-17
4518.9409    4.2250e-17
4519.9559    4.0666e-17
4520.9708    3.7863e-17
4521.9858    3.6842e-17
4523.0007    3.8041e-17
4524.0157    3.5785e-17
4525.0307    3.4677e-17
4526.0456    3.6908e-17
4527.0606    4.0194e-17
4528.0756    4.0115e-17
4529.0905    3.8709e-17
4530.1055    3.6453e-17
4531.1204    3.7498e-17
4532.1354    3.9116e-17
4533.1504    4.3805e-17
4534.1653    4.2144e-17
4535.1803    4.0037e-17
4536.1953    4.0542e-17
4537.2102    3.4707e-17
4538.2252    3.5493e-17
4539.2401    3.9120e-17
4540.2551    4.2384e-17
4541.2701    4.2174e-17
4542.2850    4.1967e-17
4543.3000    4.4078e-17
4544.3149    4.5525e-17
4545.3299    4.5681e-17
4546.3449    4.0979e-17
4547.3598    3.4265e-17
4548.3748    3.5983e-17
4549.3898    4.1203e-17
4550.4047    3.7963e-17
4551.4197    3.7354e-17
4552.4346    3.9104e-17
4553.4496    3.9556e-17
4554.4646    3.7597e-17
4555.4795    3.4900e-17
4556.4945    3.4774e-17
4557.5095    3.4959e-17
4558.5244    3.4192e-17
4559.5394    3.5569e-17
4560.5543    3.9380e-17
4561.5693    3.8334e-17
4562.5843    4.3223e-17
4563.5992    4.4510e-17
4564.6142    4.0025e-17
4565.6291    4.2066e-17
4566.6441    4.1435e-17
4567.6591    3.4379e-17
4568.6740    3.8627e-17
4569.6890    3.9181e-17
4570.7040    3.6770e-17
4571.7189    3.6069e-17
4572.7339    3.9494e-17
4573.7488    3.8028e-17
4574.7638    3.2951e-17
4575.7788    3.2211e-17
4576.7937    3.6212e-17
4577.8087    4.1787e-17
4578.8237    4.1470e-17
4579.8386    3.8089e-17
4580.8536    4.0721e-17
4581.8685    3.7174e-17
4582.8835    3.5902e-17
4583.8985    3.4406e-17
4584.9134    3.2289e-17
4585.9284    3.2678e-17
4586.9434    3.4274e-17
4587.9583    3.6943e-17
4588.9733    3.6946e-17
4589.9882    3.1933e-17
4591.0032    3.5351e-17
4592.0182    4.0070e-17
4593.0331    3.6176e-17
4594.0481    3.5579e-17
4595.0630    3.8471e-17
4596.0780    3.9052e-17
4597.0930    3.9202e-17
4598.1079    4.0240e-17
4599.1229    3.9220e-17
4600.1379    4.0963e-17
4601.1528    3.8392e-17
4602.1678    3.5442e-17
4603.1827    3.6982e-17
4604.1977    3.6736e-17
4605.2127    3.7296e-17
4606.2276    3.7568e-17
4607.2426    3.4262e-17
4608.2576    3.1073e-17
4609.2725    3.6134e-17
4610.2875    3.6763e-17
4611.3024    3.7557e-17
4612.3174    3.8006e-17
4613.3324    3.9308e-17
4614.3473    3.9925e-17
4615.3623    3.3558e-17
4616.3772    3.6078e-17
4617.3922    4.1022e-17
4618.4072    4.0531e-17
4619.4221    3.9334e-17
4620.4371    3.9142e-17
4621.4521    3.7921e-17
4622.4670    3.9236e-17
4623.4820    3.7228e-17
4624.4969    3.8355e-17
4625.5119    3.9020e-17
4626.5269    4.0253e-17
4627.5418    4.0128e-17
4628.5568    3.7860e-17
4629.5718    3.7797e-17
4630.5867    3.4515e-17
4631.6017    3.1243e-17
4632.6166    3.2179e-17
4633.6316    3.3030e-17
4634.6466    3.3603e-17
4635.6615    3.4806e-17
4636.6765    3.3241e-17
4637.6915    3.2420e-17
4638.7064    3.6570e-17
4639.7214    3.8274e-17
4640.7363    3.5318e-17
4641.7513    3.3143e-17
4642.7663    3.2125e-17
4643.7812    3.0799e-17
4644.7962    3.2360e-17
4645.8111    3.0389e-17
4646.8261    3.1042e-17
4647.8411    3.6657e-17
4648.8560    3.8734e-17
4649.8710    3.6167e-17
4650.8860    3.5162e-17
4651.9009    3.1434e-17
4652.9159    2.7830e-17
4653.9308    2.9116e-17
4654.9458    3.3531e-17
4655.9608    3.8257e-17
4656.9757    3.5241e-17
4657.9907    2.9609e-17
4659.0057    3.0883e-17
4660.0206    3.3850e-17
4661.0356    3.5565e-17
4662.0505    3.7539e-17
4663.0655    3.9091e-17
4664.0805    4.2336e-17
4665.0954    4.3750e-17
4666.1104    4.2766e-17
4667.1254    4.3349e-17
4668.1403    3.7693e-17
4669.1553    3.1256e-17
4670.1702    3.4095e-17
4671.1852    4.2451e-17
4672.2002    4.8112e-17
4673.2151    4.7789e-17
4674.2301    4.6187e-17
4675.2450    4.4292e-17
4676.2600    4.3661e-17
4677.2750    4.2051e-17
4678.2899    3.6031e-17
4679.3049    3.0944e-17
4680.3199    3.1352e-17
4681.3348    3.6328e-17
4682.3498    4.1296e-17
4683.3647    4.3686e-17
4684.3797    4.0732e-17
4685.3947    3.7635e-17
4686.4096    3.5710e-17
4687.4246    3.4266e-17
4688.4396    3.5842e-17
4689.4545    3.5326e-17
4690.4695    3.5740e-17
4691.4844    3.9767e-17
4692.4994    4.4974e-17
4693.5144    4.3170e-17
4694.5293    3.4621e-17
4695.5443    3.4445e-17
4696.5592    3.8099e-17
4697.5742    3.7279e-17
4698.5892    3.6860e-17
4699.6041    3.5741e-17
4700.6191    4.5962e-17
4701.6341    3.1504e-17
4702.6490    5.2302e-17
4703.6640    3.6549e-17
4704.6789    4.2557e-17
4705.6939    4.3999e-17
4706.7089    4.2225e-17
4707.7238    2.7386e-17
4708.7388    2.4928e-17
4709.7538    4.3292e-17
4710.7687    3.6394e-17
4711.7837    4.8714e-17
4712.7986    4.3474e-17
4713.8136    4.8440e-17
4714.8286    3.2863e-17
4715.8435    3.6263e-17
4716.8585    3.5991e-17
4717.8735    4.1796e-17
4718.8884    3.6159e-17
4719.9034    2.9793e-17
4720.9183    3.4174e-17
4721.9333    2.7295e-17
4722.9483    3.0536e-17
4723.9632    3.2290e-17
4724.9782    4.1195e-17
4725.9931    3.0681e-17
4727.0081    3.8520e-17
4728.0231    2.6296e-17
4729.0380    3.0166e-17
4730.0530    3.3555e-17
4731.0680    3.5714e-17
4732.0829    3.3259e-17
4733.0979    4.0051e-17
4734.1128    3.5980e-17
4735.1278    4.3389e-17
4736.1428    4.0058e-17
4737.1577    3.9870e-17
4738.1727    3.5645e-17
4739.1877    3.8199e-17
4740.2026    3.7403e-17
4741.2176    2.6774e-17
4742.2325    2.7310e-17
4743.2475    3.5402e-17
4744.2625    4.0098e-17
4745.2774    3.5797e-17
4746.2924    3.3818e-17
4747.3073    3.6043e-17
4748.3223    3.5548e-17
4749.3373    3.7595e-17
4750.3522    3.6716e-17
4751.3672    3.4914e-17
4752.3822    3.5623e-17
4753.3971    3.1564e-17
4754.4121    3.3674e-17
4755.4270    3.2892e-17
4756.4420    3.1185e-17
4757.4570    2.7179e-17
4758.4719    2.9931e-17
4759.4869    3.3836e-17
4760.5019    3.3405e-17
4761.5168    3.3930e-17
4762.5318    3.7481e-17
4763.5467    3.4658e-17
4764.5617    2.9702e-17
4765.5767    2.8455e-17
4766.5916    3.3400e-17
4767.6066    3.3880e-17
4768.6215    3.2149e-17
4769.6365    3.0418e-17
4770.6515    3.1685e-17
4771.6664    3.2912e-17
4772.6814    3.1777e-17
4773.6964    2.8968e-17
4774.7113    3.0944e-17
4775.7263    3.2082e-17
4776.7412    3.6294e-17
4777.7562    3.6407e-17
4778.7712    2.9670e-17
4779.7861    2.5796e-17
4780.8011    3.2758e-17
4781.8161    3.3336e-17
4782.8310    3.3228e-17
4783.8460    3.2618e-17
4784.8609    3.1625e-17
4785.8759    3.3552e-17
4786.8909    3.1155e-17
4787.9058    3.4366e-17
4788.9208    3.0186e-17
4789.9358    3.3521e-17
4790.9507    3.6228e-17
4791.9657    3.5219e-17
4792.9806    3.3903e-17
4793.9956    3.1123e-17
4795.0106    3.2876e-17
4796.0255    2.9083e-17
4797.0405    3.2833e-17
4798.0554    2.9992e-17
4799.0704    2.6298e-17
4800.0854    2.9839e-17
4801.1003    3.0418e-17
4802.1153    3.4630e-17
4803.1303    2.7535e-17
4804.1452    3.1951e-17
4805.1602    3.4306e-17
4806.1751    3.6086e-17
4807.1901    3.6490e-17
4808.2051    2.5275e-17
4809.2200    2.6017e-17
4810.2350    3.0042e-17
4811.2500    3.1901e-17
4812.2649    3.2912e-17
4813.2799    3.4677e-17
4814.2948    3.5011e-17
4815.3098    3.4493e-17
4816.3248    3.4338e-17
4817.3397    3.0277e-17
4818.3547    3.2042e-17
4819.3696    3.3663e-17
4820.3846    3.2342e-17
4821.3996    2.9243e-17
4822.4145    3.1354e-17
4823.4295    3.3272e-17
4824.4445    2.8399e-17
4825.4594    3.0329e-17
4826.4744    2.7259e-17
4827.4893    3.4870e-17
4828.5043    3.5897e-17
4829.5193    3.2632e-17
4830.5342    2.9580e-17
4831.5492    3.6071e-17
4832.5642    3.5395e-17
4833.5791    3.4971e-17
4834.5941    3.9514e-17
4835.6090    2.7682e-17
4836.6240    2.9814e-17
4837.6390    2.7790e-17
4838.6539    3.0795e-17
4839.6689    2.8036e-17
4840.6839    3.3573e-17
4841.6988    2.0217e-17
4842.7138    2.7811e-17
4843.7287    3.3286e-17
4844.7437    3.7957e-17
4845.7587    3.5196e-17
4846.7736    2.6507e-17
4847.7886    3.4393e-17
4848.8035    3.5734e-17
4849.8185    3.1929e-17
4850.8335    2.6438e-17
4851.8484    2.8120e-17
4852.8634    3.0323e-17
4853.8784    3.2596e-17
4854.8933    3.4593e-17
4855.9083    3.1017e-17
4856.9232    2.4625e-17
4857.9382    2.7640e-17
4858.9532    2.6685e-17
4859.9681    3.0378e-17
4860.9831    3.5419e-17
4861.9981    3.3523e-17
4863.0130    3.4227e-17
4864.0280    3.0888e-17
4865.0429    3.3216e-17
4866.0579    2.8811e-17
4867.0729    2.8828e-17
4868.0878    3.1283e-17
4869.1028    2.6375e-17
4870.1177    3.2676e-17
4871.1327    3.2775e-17
4872.1477    2.8811e-17
4873.1626    3.0844e-17
4874.1776    2.6994e-17
4875.1926    3.1624e-17
4876.2075    2.8726e-17
4877.2225    3.4901e-17
4878.2374    2.7949e-17
4879.2524    3.2811e-17
4880.2674    2.7635e-17
4881.2823    2.8877e-17
4882.2973    4.1201e-17
4883.3123    3.3933e-17
4884.3272    2.7488e-17
4885.3422    2.6483e-17
4886.3571    2.8507e-17
4887.3721    2.7016e-17
4888.3871    2.9083e-17
4889.4020    3.0498e-17
4890.4170    3.2355e-17
4891.4320    3.4175e-17
4892.4469    2.6754e-17
4893.4619    2.9059e-17
4894.4768    3.2669e-17
4895.4918    2.9894e-17
4896.5068    3.1540e-17
4897.5217    3.0679e-17
4898.5367    3.0426e-17
4899.5516    3.4416e-17
4900.5666    3.0623e-17
4901.5816    3.1761e-17
4902.5965    2.9985e-17
4903.6115    3.2381e-17
4904.6265    2.9838e-17
4905.6414    2.7576e-17
4906.6564    3.3039e-17
4907.6713    2.8548e-17
4908.6863    2.8451e-17
4909.7013    3.1577e-17
4910.7162    3.2602e-17
4911.7312    3.0538e-17
4912.7462    3.1525e-17
4913.7611    3.1294e-17
4914.7761    2.8799e-17
4915.7910    3.0165e-17
4916.8060    3.2049e-17
4917.8210    2.7593e-17
4918.8359    3.1154e-17
4919.8509    2.9520e-17
4920.8659    2.8507e-17
4921.8808    2.7465e-17
4922.8958    2.4385e-17
4923.9107    2.8183e-17
4924.9257    3.0923e-17
4925.9407    2.9009e-17
4926.9556    3.0973e-17
4927.9706    3.2091e-17
4928.9855    3.2900e-17
4930.0005    3.2811e-17
4931.0155    3.3757e-17
4932.0304    2.9895e-17
4933.0454    2.6067e-17
4934.0604    2.8558e-17
4935.0753    3.2147e-17
4936.0903    2.9194e-17
4937.1052    3.2328e-17
4938.1202    3.4602e-17
4939.1352    3.1135e-17
4940.1501    3.1131e-17
4941.1651    2.7889e-17
4942.1801    2.8704e-17
4943.1950    3.1218e-17
4944.2100    2.9777e-17
4945.2249    2.7032e-17
4946.2399    2.8602e-17
4947.2549    2.8892e-17
4948.2698    3.0392e-17
4949.2848    3.0747e-17
4950.2997    2.7276e-17
4951.3147    2.6680e-17
4952.3297    2.5123e-17
4953.3446    2.4529e-17
4954.3596    2.6360e-17
4955.3746    2.8518e-17
4956.3895    2.8275e-17
4957.4045    2.8887e-17
4958.4194    2.6664e-17
4959.4344    2.5802e-17
4960.4494    2.7756e-17
4961.4643    2.9858e-17
4962.4793    2.9503e-17
4963.4943    3.0405e-17
4964.5092    3.0526e-17
4965.5242    2.8444e-17
4966.5391    2.7656e-17
4967.5541    3.1848e-17
4968.5691    3.3892e-17
4969.5840    3.1923e-17
4970.5990    3.2810e-17
4971.6139    3.1477e-17
4972.6289    3.1594e-17
4973.6439    3.0742e-17
4974.6588    3.0778e-17
4975.6738    2.9577e-17
4976.6888    2.5371e-17
4977.7037    2.3713e-17
4978.7187    2.4657e-17
4979.7336    2.4541e-17
4980.7486    2.4784e-17
4981.7636    3.1335e-17
4982.7785    3.3393e-17
4983.7935    3.1281e-17
4984.8085    3.2593e-17
4985.8234    2.9639e-17
4986.8384    2.6517e-17
4987.8533    2.7251e-17
4988.8683    2.8616e-17
4989.8833    2.9515e-17
4990.8982    2.9670e-17
4991.9132    2.7662e-17
4992.9282    2.9350e-17
4993.9431    3.0129e-17
4994.9581    2.8470e-17
4995.9730    2.6223e-17
4996.9880    2.5612e-17
4998.0030    2.5153e-17
4999.0179    2.4013e-17
5000.0329    2.8528e-17
5001.0478    3.0670e-17
5002.0628    2.8977e-17
5003.0778    2.9465e-17
5004.0927    2.6022e-17
5005.1077    2.5520e-17
5006.1227    2.8178e-17
5007.1376    2.8048e-17
5008.1526    2.6588e-17
5009.1675    3.0192e-17
5010.1825    3.0219e-17
5011.1975    2.8711e-17
5012.2124    2.8749e-17
5013.2274    2.7965e-17
5014.2424    2.9879e-17
5015.2573    2.9085e-17
5016.2723    2.7263e-17
5017.2872    2.7652e-17
5018.3022    2.5218e-17
5019.3172    2.6027e-17
5020.3321    2.9171e-17
5021.3471    2.9494e-17
5022.3620    2.4396e-17
5023.3770    2.1386e-17
5024.3920    2.5431e-17
5025.4069    2.8103e-17
5026.4219    2.7523e-17
5027.4369    2.6883e-17
5028.4518    2.7759e-17
5029.4668    2.6077e-17
5030.4817    2.3905e-17
5031.4967    2.4162e-17
5032.5117    2.7204e-17
5033.5266    2.7947e-17
5034.5416    2.8101e-17
5035.5566    2.5986e-17
5036.5715    2.6152e-17
5037.5865    2.7552e-17
5038.6014    2.9047e-17
5039.6164    2.8476e-17
5040.6314    2.8432e-17
5041.6463    2.8693e-17
5042.6613    2.7098e-17
5043.6763    2.5944e-17
5044.6912    2.7389e-17
5045.7062    2.7749e-17
5046.7211    2.6094e-17
5047.7361    2.6084e-17
5048.7511    2.6641e-17
5049.7660    2.4542e-17
5050.7810    2.5566e-17
5051.7959    2.5222e-17
5052.8109    2.5361e-17
5053.8259    2.5110e-17
5054.8408    2.6257e-17
5055.8558    2.6925e-17
5056.8708    2.6816e-17
5057.8857    2.9355e-17
5058.9007    2.9217e-17
5059.9156    2.7367e-17
5060.9306    2.7689e-17
5061.9456    3.1659e-17
5062.9605    2.7016e-17
5063.9755    2.5365e-17
5064.9905    2.8322e-17
5066.0054    2.8875e-17
5067.0204    3.0631e-17
5068.0353    2.9408e-17
5069.0503    2.7309e-17
5070.0653    2.7413e-17
5071.0802    2.7022e-17
5072.0952    2.7282e-17
5073.1101    2.6524e-17
5074.1251    2.4739e-17
5075.1401    2.7125e-17
5076.1550    2.6771e-17
5077.1700    2.7737e-17
5078.1850    2.6648e-17
5079.1999    2.4968e-17
5080.2149    2.5863e-17
5081.2298    2.7761e-17
5082.2448    2.9449e-17
5083.2598    2.7455e-17
5084.2747    2.5598e-17
5085.2897    2.8247e-17
5086.3047    2.8317e-17
5087.3196    2.4644e-17
5088.3346    2.5247e-17
5089.3495    2.8887e-17
5090.3645    2.8320e-17
5091.3795    2.9279e-17
5092.3944    2.9406e-17
5093.4094    2.9870e-17
5094.4244    2.9492e-17
5095.4393    2.6959e-17
5096.4543    2.7336e-17
5097.4692    2.6933e-17
5098.4842    2.7568e-17
5099.4992    2.8449e-17
5100.5141    2.8144e-17
5101.5291    2.7532e-17
5102.5440    2.8400e-17
5103.5590    2.8457e-17
5104.5740    2.7378e-17
5105.5889    2.7362e-17
5106.6039    2.9017e-17
5107.6189    2.7952e-17
5108.6338    2.7501e-17
5109.6488    2.7831e-17
5110.6637    2.7183e-17
5111.6787    2.6686e-17
5112.6937    2.5774e-17
5113.7086    2.7486e-17
5114.7236    2.7097e-17
5115.7386    2.5853e-17
5116.7535    2.5670e-17
5117.7685    2.7165e-17
5118.7834    2.9980e-17
5119.7984    3.1294e-17
5120.8134    2.8685e-17
5121.8283    2.7600e-17
5122.8433    2.7005e-17
5123.8582    2.5695e-17
5124.8732    2.6645e-17
5125.8882    2.7424e-17
5126.9031    2.7847e-17
5127.9181    2.8485e-17
5128.9331    2.8237e-17
5129.9480    2.7137e-17
5130.9630    2.4774e-17
5131.9779    2.3655e-17
5132.9929    2.3928e-17
5134.0079    2.6296e-17
5135.0228    3.0156e-17
5136.0378    2.8593e-17
5137.0528    2.6021e-17
5138.0677    2.5794e-17
5139.0827    2.8662e-17
5140.0976    2.9045e-17
5141.1126    2.7889e-17
5142.1276    2.7487e-17
5143.1425    2.9063e-17
5144.1575    3.0485e-17
5145.1725    3.0000e-17
5146.1874    2.6885e-17
5147.2024    2.6446e-17
5148.2173    2.6302e-17
5149.2323    2.5770e-17
5150.2473    2.3693e-17
5151.2622    2.4563e-17
5152.2772    2.6769e-17
5153.2921    2.7017e-17
5154.3071    2.4284e-17
5155.3221    2.4552e-17
5156.3370    2.5935e-17
5157.3520    2.5985e-17
5158.3670    2.6430e-17
5159.3819    2.5378e-17
5160.3969    2.6666e-17
5161.4118    2.9412e-17
5162.4268    2.7160e-17
5163.4418    2.5702e-17
5164.4567    2.8320e-17
5165.4717    2.8327e-17
5166.4867    2.8051e-17
5167.5016    2.6409e-17
5168.5166    2.7586e-17
5169.5315    2.7842e-17
5170.5465    3.0270e-17
5171.5615    3.0301e-17
5172.5764    2.5917e-17
5173.5914    2.5916e-17
5174.6064    2.9634e-17
5175.6213    2.9513e-17
5176.6363    2.7911e-17
5177.6512    2.6963e-17
5178.6662    2.6612e-17
5179.6812    2.6053e-17
5180.6961    2.5639e-17
5181.7111    2.5821e-17
5182.7260    2.7606e-17
5183.7410    2.8262e-17
5184.7560    2.6686e-17
5185.7709    2.6736e-17
5186.7859    2.6188e-17
5187.8009    2.7335e-17
5188.8158    2.5939e-17
5189.8308    2.6161e-17
5190.8457    2.6696e-17
5191.8607    2.5646e-17
5192.8757    2.6427e-17
5193.8906    2.5310e-17
5194.9056    2.5904e-17
5195.9206    2.7301e-17
5196.9355    2.7874e-17
5197.9505    2.6815e-17
5198.9654    2.5964e-17
5199.9804    2.6223e-17
5200.9954    2.6105e-17
5202.0103    2.7250e-17
5203.0253    2.6649e-17
5204.0402    2.6834e-17
5205.0552    2.7518e-17
5206.0702    2.6331e-17
5207.0851    2.7310e-17
5208.1001    2.7583e-17
5209.1151    2.8456e-17
5210.1300    2.6478e-17
5211.1450    2.4971e-17
5212.1599    2.5774e-17
5213.1749    2.8255e-17
5214.1899    2.6788e-17
5215.2048    2.5090e-17
5216.2198    2.5723e-17
5217.2348    2.6085e-17
5218.2497    2.6760e-17
5219.2647    2.6834e-17
5220.2796    2.7186e-17
5221.2946    2.7513e-17
5222.3096    2.6788e-17
5223.3245    2.5603e-17
5224.3395    2.6801e-17
5225.3544    2.7529e-17
5226.3694    2.6680e-17
5227.3844    2.7880e-17
5228.3993    2.8850e-17
5229.4143    2.7975e-17
5230.4293    2.6995e-17
5231.4442    2.7446e-17
5232.4592    2.8109e-17
5233.4741    2.7453e-17
5234.4891    2.6751e-17
5235.5041    2.7046e-17
5236.5190    2.7556e-17
5237.5340    2.8497e-17
5238.5490    2.7103e-17
5239.5639    2.4639e-17
5240.5789    2.5189e-17
5241.5938    2.7041e-17
5242.6088    2.8383e-17
5243.6238    2.7586e-17
5244.6387    2.5978e-17
5245.6537    2.6379e-17
5246.6687    2.5738e-17
5247.6836    2.4911e-17
5248.6986    2.6757e-17
5249.7135    2.8863e-17
5250.7285    2.8507e-17
5251.7435    2.9400e-17
5252.7584    2.6917e-17
5253.7734    2.4452e-17
5254.7883    2.5764e-17
5255.8033    2.6272e-17
5256.8183    2.5482e-17
5257.8332    2.4863e-17
5258.8482    2.6323e-17
5259.8632    2.4886e-17
5260.8781    2.3999e-17
5261.8931    2.5933e-17
5262.9080    2.5608e-17
5263.9230    2.4687e-17
5264.9380    2.5814e-17
5265.9529    2.7241e-17
5266.9679    2.6598e-17
5267.9829    2.6400e-17
5268.9978    2.8240e-17
5270.0128    2.8912e-17
5271.0277    2.9304e-17
5272.0427    2.9000e-17
5273.0577    2.6495e-17
5274.0726    2.4532e-17
5275.0876    2.6172e-17
5276.1025    2.9685e-17
5277.1175    3.0456e-17
5278.1325    3.0815e-17
5279.1474    2.8638e-17
5280.1624    2.5612e-17
5281.1774    2.6171e-17
5282.1923    2.7681e-17
5283.2073    2.6619e-17
5284.2222    2.7357e-17
5285.2372    2.7111e-17
5286.2522    2.6335e-17
5287.2671    2.4917e-17
5288.2821    2.4979e-17
5289.2971    2.5869e-17
5290.3120    2.5201e-17
5291.3270    2.5144e-17
5292.3419    2.5811e-17
5293.3569    2.6964e-17
5294.3719    2.6800e-17
5295.3868    2.7710e-17
5296.4018    2.7931e-17
5297.4168    2.6173e-17
5298.4317    2.7744e-17
5299.4467    2.6125e-17
5300.4616    2.4981e-17
5301.4766    2.7271e-17
5302.4916    2.7688e-17
5303.5065    2.7183e-17
5304.5215    2.7606e-17
5305.5364    2.7509e-17
5306.5514    2.7526e-17
5307.5664    2.6534e-17
5308.5813    2.4585e-17
5309.5963    2.4440e-17
5310.6113    2.7501e-17
5311.6262    2.8879e-17
5312.6412    2.9005e-17
5313.6561    2.8416e-17
5314.6711    2.7326e-17
5315.6861    2.5588e-17
5316.7010    2.4745e-17
5317.7160    2.4586e-17
5318.7310    2.6795e-17
5319.7459    2.7057e-17
5320.7609    2.4862e-17
5321.7758    2.5314e-17
5322.7908    2.6617e-17
5323.8058    2.6777e-17
5324.8207    2.5141e-17
5325.8357    2.5130e-17
5326.8507    2.5377e-17
5327.8656    2.4241e-17
5328.8806    2.7759e-17
5329.8955    2.7192e-17
5330.9105    2.4604e-17
5331.9255    2.5661e-17
5332.9404    2.8334e-17
5333.9554    2.7897e-17
5334.9703    2.8067e-17
5335.9853    2.6700e-17
5337.0003    2.5592e-17
5338.0152    2.4811e-17
5339.0302    2.5635e-17
5340.0452    2.7964e-17
5341.0601    2.8294e-17
5342.0751    2.5394e-17
5343.0900    2.7186e-17
5344.1050    2.5976e-17
5345.1200    2.7458e-17
5346.1349    2.8071e-17
5347.1499    2.6597e-17
5348.1649    2.8234e-17
5349.1798    2.8348e-17
5350.1948    2.5709e-17
5351.2097    2.5764e-17
5352.2247    2.6581e-17
5353.2397    2.8059e-17
5354.2546    2.9831e-17
5355.2696    2.8340e-17
5356.2845    2.7178e-17
5357.2995    2.7847e-17
5358.3145    2.7830e-17
5359.3294    2.7455e-17
5360.3444    2.6908e-17
5361.3594    2.7333e-17
5362.3743    2.6696e-17
5363.3893    2.8747e-17
5364.4042    2.5992e-17
5365.4192    2.6241e-17
5366.4342    2.6942e-17
5367.4491    2.9080e-17
5368.4641    2.7494e-17
5369.4791    2.8111e-17
5370.4940    2.6885e-17
5371.5090    2.7748e-17
5372.5239    2.6326e-17
5373.5389    2.7335e-17
5374.5539    2.7387e-17
5375.5688    2.8032e-17
5376.5838    2.4760e-17
5377.5988    2.7594e-17
5378.6137    2.7084e-17
5379.6287    2.7181e-17
5380.6436    2.7541e-17
5381.6586    2.7200e-17
5382.6736    2.5852e-17
5383.6885    2.4842e-17
5384.7035    2.6469e-17
5385.7184    2.5170e-17
5386.7334    2.6025e-17
5387.7484    2.6295e-17
5388.7633    2.4885e-17
5389.7783    2.5074e-17
5390.7933    2.5230e-17
5391.8082    2.4285e-17
5392.8232    2.9108e-17
5393.8381    3.0015e-17
5394.8531    2.4978e-17
5395.8681    2.7788e-17
5396.8830    2.8767e-17
5397.8980    2.9364e-17
5398.9130    2.6100e-17
5399.9279    2.3845e-17
5400.9429    2.3637e-17
5401.9578    2.4669e-17
5402.9728    2.6499e-17
5403.9878    2.8251e-17
5405.0027    2.5656e-17
5406.0177    2.6452e-17
5407.0326    2.9697e-17
5408.0476    2.6731e-17
5409.0626    2.8309e-17
5410.0775    2.5324e-17
5411.0925    2.7054e-17
5412.1075    2.6070e-17
5413.1224    2.6272e-17
5414.1374    2.7389e-17
5415.1523    2.6887e-17
5416.1673    2.5243e-17
5417.1823    2.5901e-17
5418.1972    2.6131e-17
5419.2122    2.5824e-17
5420.2272    2.6158e-17
5421.2421    2.6203e-17
5422.2571    2.6732e-17
5423.2720    2.7149e-17
5424.2870    2.5940e-17
5425.3020    2.6206e-17
5426.3169    2.6848e-17
5427.3319    2.7263e-17
5428.3468    2.6421e-17
5429.3618    2.7041e-17
5430.3768    2.7347e-17
5431.3917    2.5453e-17
5432.4067    2.5291e-17
5433.4217    2.7181e-17
5434.4366    2.5274e-17
5435.4516    2.7120e-17
5436.4665    2.6978e-17
5437.4815    2.6677e-17
5438.4965    2.7370e-17
5439.5114    2.8279e-17
5440.5264    2.8534e-17
5441.5414    2.8681e-17
5442.5563    2.8265e-17
5443.5713    2.8319e-17
5444.5862    2.7178e-17
5445.6012    2.6644e-17
5446.6162    2.5985e-17
5447.6311    2.6024e-17
5448.6461    2.6426e-17
5449.6611    2.6994e-17
5450.6760    2.5543e-17
5451.6910    2.5677e-17
5452.7059    2.5887e-17
5453.7209    2.7491e-17
5454.7359    2.6498e-17
5455.7508    2.5356e-17
5456.7658    2.6837e-17
5457.7807    2.7066e-17
5458.7957    2.6864e-17
5459.8107    2.7265e-17
5460.8256    2.7310e-17
5461.8406    2.5750e-17
5462.8556    2.5698e-17
5463.8705    2.5902e-17
5464.8855    2.6581e-17
5465.9004    2.4820e-17
5466.9154    2.4766e-17
5467.9304    2.5975e-17
5468.9453    2.5874e-17
5469.9603    2.6406e-17
5470.9753    2.6520e-17
5471.9902    2.6430e-17
5473.0052    2.5784e-17
5474.0201    2.5757e-17
5475.0351    2.8044e-17
5476.0501    2.7642e-17
5477.0650    2.4627e-17
5478.0800    2.4349e-17
5479.0949    2.6638e-17
5480.1099    2.7070e-17
5481.1249    2.6002e-17
5482.1398    2.5497e-17
5483.1548    2.5801e-17
5484.1698    2.6390e-17
5485.1847    2.5838e-17
5486.1997    2.6106e-17
5487.2146    2.6879e-17
5488.2296    2.6391e-17
5489.2446    2.4916e-17
5490.2595    2.4653e-17
5491.2745    2.4664e-17
5492.2895    2.4068e-17
5493.3044    2.4463e-17
5494.3194    2.5464e-17
5495.3343    2.6086e-17
5496.3493    2.5014e-17
5497.3643    2.6469e-17
5498.3792    2.6806e-17
5499.3942    2.5799e-17
5500.4092    2.5435e-17
5501.4241    2.6886e-17
5502.4391    2.7166e-17
5503.4540    2.6962e-17
5504.4690    2.6940e-17
5505.4840    2.6245e-17
5506.4989    2.6104e-17
5507.5139    2.5317e-17
5508.5288    2.5009e-17
5509.5438    2.5972e-17
5510.5588    2.5378e-17
5511.5737    2.5091e-17
5512.5887    2.5108e-17
5513.6037    2.5831e-17
5514.6186    2.5607e-17
5515.6336    2.5195e-17
5516.6485    2.3777e-17
5517.6635    2.3970e-17
5518.6785    2.6447e-17
5519.6934    2.6910e-17
5520.7084    2.7518e-17
5521.7234    2.6820e-17
5522.7383    2.4840e-17
5523.7533    2.6416e-17
5524.7682    2.6583e-17
5525.7832    2.6215e-17
5526.7982    2.6157e-17
5527.8131    2.5237e-17
5528.8281    2.5427e-17
5529.8430    2.4750e-17
5530.8580    2.5952e-17
5531.8730    2.7038e-17
5532.8879    2.7124e-17
5533.9029    2.6105e-17
5534.9179    2.5758e-17
5535.9328    2.3960e-17
5536.9478    2.3120e-17
5537.9627    2.4906e-17
5538.9777    2.7348e-17
5539.9927    2.6669e-17
5541.0076    2.3589e-17
5542.0226    2.5340e-17
5543.0376    2.8614e-17
5544.0525    2.5599e-17
5545.0675    2.4538e-17
5546.0824    2.6295e-17
5547.0974    2.5184e-17
5548.1124    2.5167e-17
5549.1273    2.5037e-17
5550.1423    2.3734e-17
5551.1573    2.5448e-17
5552.1722    2.3661e-17
5553.1872    2.4958e-17
5554.2021    2.4370e-17
5555.2171    2.4951e-17
5556.2321    2.4095e-17
5557.2470    2.4921e-17
5558.2620    2.4885e-17
5559.2769    2.5406e-17
5560.2919    2.5468e-17
5561.3069    2.7261e-17
5562.3218    2.4580e-17
5563.3368    2.6951e-17
5564.3518    2.3857e-17
5565.3667    2.5418e-17
5566.3817    2.4510e-17
5567.3966    2.6136e-17
5568.4116    2.5503e-17
5569.4266    2.5747e-17
5570.4415    2.5468e-17
5571.4565    2.5252e-17
5572.4715    2.5575e-17
5573.4864    2.4540e-17
5574.5014    2.3167e-17
5575.5163    5.7331e-17
5576.5313    3.4176e-17
5577.5463    2.9835e-17
5578.5612    2.8088e-17
5579.5762    4.8722e-17
5580.5912    1.3006e-17
5581.6061    2.7115e-17
5582.6211    2.6271e-17
5583.6360    2.6168e-17
5584.6510    2.4588e-17
5585.6660    2.6427e-17
5586.6809    2.5662e-17
5587.6959    2.6544e-17
5588.7108    2.6494e-17
5589.7258    2.6209e-17
5590.7408    2.5183e-17
5591.7557    2.5741e-17
5592.7707    2.5500e-17
5593.7857    2.4314e-17
5594.8006    2.5131e-17
5595.8156    2.6096e-17
5596.8305    2.6107e-17
5597.8455    2.4974e-17
5598.8605    2.5387e-17
5599.8754    2.5751e-17
5600.8904    2.5101e-17
5601.9054    2.4318e-17
5602.9203    2.4933e-17
5603.9353    2.5235e-17
5604.9502    2.5346e-17
5605.9652    2.6912e-17
5606.9802    2.6341e-17
5607.9951    2.3393e-17
5609.0101    2.3729e-17
5610.0250    2.6028e-17
5611.0400    2.6840e-17
5612.0550    2.6955e-17
5613.0699    2.5695e-17
5614.0849    2.4664e-17
5615.0999    2.4727e-17
5616.1148    2.6140e-17
5617.1298    2.5564e-17
5618.1447    2.4591e-17
5619.1597    2.6605e-17
5620.1747    2.6898e-17
5621.1896    2.4378e-17
5622.2046    2.4456e-17
5623.2196    2.5768e-17
5624.2345    2.5965e-17
5625.2495    2.5020e-17
5626.2644    2.5272e-17
5627.2794    2.6019e-17
5628.2944    2.5474e-17
5629.3093    2.4352e-17
5630.3243    2.4706e-17
5631.3392    2.5492e-17
5632.3542    2.5405e-17
5633.3692    2.4672e-17
5634.3841    2.5313e-17
5635.3991    2.4666e-17
5636.4141    2.4229e-17
5637.4290    2.4633e-17
5638.4440    2.4557e-17
5639.4589    2.5160e-17
5640.4739    2.4907e-17
5641.4889    2.3927e-17
5642.5038    2.3262e-17
5643.5188    2.4973e-17
5644.5338    2.6052e-17
5645.5487    2.5329e-17
5646.5637    2.4930e-17
5647.5786    2.5140e-17
5648.5936    2.6043e-17
5649.6086    2.6085e-17
5650.6235    2.5820e-17
5651.6385    2.5934e-17
5652.6535    2.4444e-17
5653.6684    2.5407e-17
5654.6834    2.4977e-17
5655.6983    2.3095e-17
5656.7133    2.5711e-17
5657.7283    2.6331e-17
5658.7432    2.6138e-17
5659.7582    2.5935e-17
5660.7731    2.4877e-17
5661.7881    2.4326e-17
5662.8031    2.5694e-17
5663.8180    2.4555e-17
5664.8330    2.6586e-17
5665.8480    2.5240e-17
5666.8629    2.5240e-17
5667.8779    2.5448e-17
5668.8928    2.4823e-17
5669.9078    2.4783e-17
5670.9228    2.5241e-17
5671.9377    2.4993e-17
5672.9527    2.5489e-17
5673.9677    2.5549e-17
5674.9826    2.4747e-17
5675.9976    2.5573e-17
5677.0125    2.5422e-17
5678.0275    2.4158e-17
5679.0425    2.4888e-17
5680.0574    2.4304e-17
5681.0724    2.4948e-17
5682.0873    2.3005e-17
5683.1023    2.4479e-17
5684.1173    2.5235e-17
5685.1322    2.6546e-17
5686.1472    2.5213e-17
5687.1622    2.8210e-17
5688.1771    2.5807e-17
5689.1921    2.3685e-17
5690.2070    2.3991e-17
5691.2220    2.4493e-17
5692.2370    2.5880e-17
5693.2519    2.6763e-17
5694.2669    2.5855e-17
5695.2819    2.5189e-17
5696.2968    2.5235e-17
5697.3118    2.3690e-17
5698.3267    2.4028e-17
5699.3417    2.4098e-17
5700.3567    2.6299e-17
5701.3716    2.6184e-17
5702.3866    2.5770e-17
5703.4016    2.3916e-17
5704.4165    2.3606e-17
5705.4315    2.2982e-17
5706.4464    2.5497e-17
5707.4614    2.5215e-17
5708.4764    2.4022e-17
5709.4913    2.4955e-17
5710.5063    2.5654e-17
5711.5212    2.4649e-17
5712.5362    2.3934e-17
5713.5512    2.4269e-17
5714.5661    2.5279e-17
5715.5811    2.4393e-17
5716.5961    2.4797e-17
5717.6110    2.4040e-17
5718.6260    2.4365e-17
5719.6409    2.3082e-17
5720.6559    2.2921e-17
5721.6709    2.3740e-17
5722.6858    2.3124e-17
5723.7008    2.2581e-17
5724.7158    2.3461e-17
5725.7307    2.3316e-17
5726.7457    2.2573e-17
5727.7606    2.2800e-17
5728.7756    2.3566e-17
5729.7906    2.5012e-17
5730.8055    2.5107e-17
5731.8205    2.4136e-17
5732.8354    2.3490e-17
5733.8504    2.4387e-17
5734.8654    2.5085e-17
5735.8803    2.5243e-17
5736.8953    2.4460e-17
5737.9103    2.2253e-17
5738.9252    2.2289e-17
5739.9402    2.4234e-17
5740.9551    2.5038e-17
5741.9701    2.4325e-17
5742.9851    2.3634e-17
5744.0000    2.4504e-17
5745.0150    2.5209e-17
5746.0300    2.4706e-17
5747.0449    2.4026e-17
5748.0599    2.3773e-17
5749.0748    2.4408e-17
5750.0898    2.3710e-17
5751.1048    2.2973e-17
5752.1197    2.3154e-17
5753.1347    2.3855e-17
5754.1497    2.3570e-17
5755.1646    2.4348e-17
5756.1796    2.4115e-17
5757.1945    2.4133e-17
5758.2095    2.4343e-17
5759.2245    2.3422e-17
5760.2394    2.4083e-17
5761.2544    2.4042e-17
5762.2693    2.3187e-17
5763.2843    2.4868e-17
5764.2993    2.4644e-17
5765.3142    2.4197e-17
5766.3292    2.5143e-17
5767.3442    2.6922e-17
5768.3591    2.6176e-17
5769.3741    2.5124e-17
5770.3890    2.5468e-17
5771.4040    2.3917e-17
5772.4190    2.6164e-17
5773.4339    2.6522e-17
5774.4489    2.7330e-17
5775.4639    2.6203e-17
5776.4788    2.7131e-17
5777.4938    2.7393e-17
5778.5087    2.7702e-17
5779.5237    2.5582e-17
5780.5387    2.7626e-17
5781.5536    2.4927e-17
5782.5686    2.4636e-17
5783.5835    2.8973e-17
5784.5985    2.7466e-17
5785.6135    2.8042e-17
5786.6284    2.7685e-17
5787.6434    2.9194e-17
5788.6584    2.6109e-17
5789.6733    2.5619e-17
5790.6883    2.4090e-17
5791.7032    2.5966e-17
5792.7182    2.5219e-17
5793.7332    2.5947e-17
5794.7481    2.6538e-17
5795.7631    2.4128e-17
5796.7781    2.5275e-17
5797.7930    2.5633e-17
5798.8080    2.7418e-17
5799.8229    2.6154e-17
5800.8379    2.3908e-17
5801.8529    2.4193e-17
5802.8678    2.5613e-17
5803.8828    2.7597e-17
5804.8978    2.4087e-17
5805.9127    2.8308e-17
5806.9277    2.4653e-17
5807.9426    2.4871e-17
5808.9576    2.6151e-17
5809.9726    2.7412e-17
5810.9875    2.5203e-17
5812.0025    2.5175e-17
5813.0174    2.5530e-17
5814.0324    2.6218e-17
5815.0474    2.6647e-17
5816.0623    2.8051e-17
5817.0773    2.3727e-17
5818.0923    2.5137e-17
5819.1072    2.6696e-17
5820.1222    2.6155e-17
5821.1371    2.6056e-17
5822.1521    2.7004e-17
5823.1671    2.7089e-17
5824.1820    2.6209e-17
5825.1970    2.5944e-17
5826.2120    2.6847e-17
5827.2269    2.6155e-17
5828.2419    2.7108e-17
5829.2568    2.6954e-17
5830.2718    2.6135e-17
5831.2868    2.5560e-17
5832.3017    2.5324e-17
5833.3167    2.4991e-17
5834.3317    2.4772e-17
5835.3466    2.5129e-17
5836.3616    2.5671e-17
5837.3765    2.5991e-17
5838.3915    2.5103e-17
5839.4065    2.3869e-17
5840.4214    2.4297e-17
5841.4364    2.4756e-17
5842.4513    2.4023e-17
5843.4663    2.4541e-17
5844.4813    2.4692e-17
5845.4962    2.4329e-17
5846.5112    2.4885e-17
5847.5262    2.4846e-17
5848.5411    2.5735e-17
5849.5561    2.5110e-17
5850.5710    2.4677e-17
5851.5860    2.6904e-17
5852.6010    2.5790e-17
5853.6159    2.5778e-17
5854.6309    2.5569e-17
5855.6459    2.4791e-17
5856.6608    2.3857e-17
5857.6758    2.3736e-17
5858.6907    2.4943e-17
5859.7057    2.5147e-17
5860.7207    2.2605e-17
5861.7356    2.3450e-17
5862.7506    2.4674e-17
5863.7655    2.5555e-17
5864.7805    2.4430e-17
5865.7955    2.4155e-17
5866.8104    2.4200e-17
5867.8254    2.6659e-17
5868.8404    2.5692e-17
5869.8553    2.5180e-17
5870.8703    2.4275e-17
5871.8852    2.5083e-17
5872.9002    2.3821e-17
5873.9152    2.4912e-17
5874.9301    2.5244e-17
5875.9451    2.3717e-17
5876.9601    2.3149e-17
5877.9750    2.6435e-17
5878.9900    2.4934e-17
5880.0049    2.3672e-17
5881.0199    2.3173e-17
5882.0349    2.3312e-17
5883.0498    2.5511e-17
5884.0648    2.4765e-17
5885.0797    2.5006e-17
5886.0947    2.2789e-17
5887.1097    2.1886e-17
5888.1246    2.7716e-17
5889.1396    2.3279e-17
5890.1546    2.5229e-17
5891.1695    2.5291e-17
5892.1845    2.5789e-17
5893.1994    2.1281e-17
5894.2144    2.4561e-17
5895.2294    2.3843e-17
5896.2443    2.3593e-17
5897.2593    2.4344e-17
5898.2743    2.4523e-17
5899.2892    2.4524e-17
5900.3042    2.5529e-17
5901.3191    2.5256e-17
5902.3341    2.3822e-17
5903.3491    2.4839e-17
5904.3640    2.4711e-17
5905.3790    2.3556e-17
5906.3940    2.4203e-17
5907.4089    2.5711e-17
5908.4239    2.5365e-17
5909.4388    2.4479e-17
5910.4538    2.3035e-17
5911.4688    2.2911e-17
5912.4837    2.4728e-17
5913.4987    2.4274e-17
5914.5136    2.3223e-17
5915.5286    2.3954e-17
5916.5436    2.4235e-17
5917.5585    2.5041e-17
5918.5735    2.5486e-17
5919.5885    2.5611e-17
5920.6034    2.4868e-17
5921.6184    2.4323e-17
5922.6333    2.3540e-17
5923.6483    2.3478e-17
5924.6633    2.3904e-17
5925.6782    2.4223e-17
5926.6932    2.4859e-17
5927.7082    2.4864e-17
5928.7231    2.4485e-17
5929.7381    2.3928e-17
5930.7530    2.2663e-17
5931.7680    2.3089e-17
5932.7830    2.4555e-17
5933.7979    2.4077e-17
5934.8129    2.3019e-17
5935.8278    2.2477e-17
5936.8428    2.3942e-17
5937.8578    2.4174e-17
5938.8727    2.5000e-17
5939.8877    2.4654e-17
5940.9027    2.3382e-17
5941.9176    2.4204e-17
5942.9326    2.3919e-17
5943.9475    2.3809e-17
5944.9625    2.2911e-17
5945.9775    2.4013e-17
5946.9924    2.3502e-17
5948.0074    2.4316e-17
5949.0224    2.3836e-17
5950.0373    2.3806e-17
5951.0523    2.4076e-17
5952.0672    2.3496e-17
5953.0822    2.2271e-17
5954.0972    2.3709e-17
5955.1121    2.3570e-17
5956.1271    2.4805e-17
5957.1421    2.3286e-17
5958.1570    2.3234e-17
5959.1720    2.3686e-17
5960.1869    2.2915e-17
5961.2019    2.3144e-17
5962.2169    2.1766e-17
5963.2318    2.3257e-17
5964.2468    2.3179e-17
5965.2617    2.2478e-17
5966.2767    2.2631e-17
5967.2917    2.4048e-17
5968.3066    2.4183e-17
5969.3216    2.4648e-17
5970.3366    2.3128e-17
5971.3515    2.2026e-17
5972.3665    2.4385e-17
5973.3814    2.4063e-17
5974.3964    2.4005e-17
5975.4114    2.4389e-17
5976.4263    2.3479e-17
5977.4413    2.2127e-17
5978.4563    2.2876e-17
5979.4712    2.4367e-17
5980.4862    2.4064e-17
5981.5011    2.3633e-17
5982.5161    2.3813e-17
5983.5311    2.3023e-17
5984.5460    2.4145e-17
5985.5610    2.2594e-17
5986.5760    2.1856e-17
5987.5909    2.2162e-17
5988.6059    2.2623e-17
5989.6208    2.3278e-17
5990.6358    2.4495e-17
5991.6508    2.3790e-17
5992.6657    2.3824e-17
5993.6807    2.4226e-17
5994.6956    2.3848e-17
5995.7106    2.2995e-17
5996.7256    2.1512e-17
5997.7405    2.2458e-17
5998.7555    2.3452e-17
5999.7705    2.2364e-17
6000.7854    2.3177e-17
6001.8004    2.3760e-17
6002.8153    2.3612e-17
6003.8303    2.3387e-17
6004.8453    2.2467e-17
6005.8602    2.2776e-17
6006.8752    2.3447e-17
6007.8902    2.4446e-17
6008.9051    2.3368e-17
6009.9201    2.1822e-17
6010.9350    2.3285e-17
6011.9500    2.3995e-17
6012.9650    2.3478e-17
6013.9799    2.2635e-17
6014.9949    2.1940e-17
6016.0098    2.1858e-17
6017.0248    2.3426e-17
6018.0398    2.3618e-17
6019.0547    2.3184e-17
6020.0697    2.3313e-17
6021.0847    2.2330e-17
6022.0996    2.1559e-17
6023.1146    2.1569e-17
6024.1295    2.2119e-17
6025.1445    2.2703e-17
6026.1595    2.2814e-17
6027.1744    2.2522e-17
6028.1894    2.2139e-17
6029.2044    2.1556e-17
6030.2193    2.1831e-17
6031.2343    2.1538e-17
6032.2492    2.1950e-17
6033.2642    2.3473e-17
6034.2792    2.2919e-17
6035.2941    2.2625e-17
6036.3091    2.1889e-17
6037.3240    2.1494e-17
6038.3390    2.3271e-17
6039.3540    2.3889e-17
6040.3689    2.3014e-17
6041.3839    2.4188e-17
6042.3989    2.5030e-17
6043.4138    2.4152e-17
6044.4288    2.3516e-17
6045.4437    2.2754e-17
6046.4587    2.3231e-17
6047.4737    2.2425e-17
6048.4886    2.2088e-17
6049.5036    2.2439e-17
6050.5186    2.2601e-17
6051.5335    2.2546e-17
6052.5485    2.3159e-17
6053.5634    2.3034e-17
6054.5784    2.2280e-17
6055.5934    2.2625e-17
6056.6083    2.2832e-17
6057.6233    2.3293e-17
6058.6383    2.2981e-17
6059.6532    2.1749e-17
6060.6682    2.1768e-17
6061.6831    2.2187e-17
6062.6981    2.2769e-17
6063.7131    2.3343e-17
6064.7280    2.3455e-17
6065.7430    2.2346e-17
6066.7579    2.2094e-17
6067.7729    2.1955e-17
6068.7879    2.2046e-17
6069.8028    2.3038e-17
6070.8178    2.3164e-17
6071.8328    2.2854e-17
6072.8477    2.2898e-17
6073.8627    2.1961e-17
6074.8776    2.1833e-17
6075.8926    2.3221e-17
6076.9076    2.3008e-17
6077.9225    2.2708e-17
6078.9375    2.4057e-17
6079.9525    2.3788e-17
6080.9674    2.2775e-17
6081.9824    2.2270e-17
6082.9973    2.1885e-17
6084.0123    2.2735e-17
6085.0273    2.2078e-17
6086.0422    2.1475e-17
6087.0572    2.2162e-17
6088.0721    2.2231e-17
6089.0871    2.2712e-17
6090.1021    2.3021e-17
6091.1170    2.3482e-17
6092.1320    2.3198e-17
6093.1470    2.3744e-17
6094.1619    2.3547e-17
6095.1769    2.2805e-17
6096.1918    2.1673e-17
6097.2068    2.1477e-17
6098.2218    2.0457e-17
6099.2367    2.2558e-17
6100.2517    2.2805e-17
6101.2667    2.2493e-17
6102.2816    2.2582e-17
6103.2966    2.3535e-17
6104.3115    2.3394e-17
6105.3265    2.0749e-17
6106.3415    2.0767e-17
6107.3564    2.2657e-17
6108.3714    2.2339e-17
6109.3864    2.3203e-17
6110.4013    2.3183e-17
6111.4163    2.2106e-17
6112.4312    2.2698e-17
6113.4462    2.3202e-17
6114.4612    2.3238e-17
6115.4761    2.2723e-17
6116.4911    2.1140e-17
6117.5060    2.2478e-17
6118.5210    2.3995e-17
6119.5360    2.3016e-17
6120.5509    2.2874e-17
6121.5659    2.3191e-17
6122.5809    2.2473e-17
6123.5958    2.2349e-17
6124.6108    2.2053e-17
6125.6257    2.2419e-17
6126.6407    2.0684e-17
6127.6557    2.1805e-17
6128.6706    2.2199e-17
6129.6856    2.2458e-17
6130.7006    2.2127e-17
6131.7155    2.1830e-17
6132.7305    2.2399e-17
6133.7454    2.1900e-17
6134.7604    2.1664e-17
6135.7754    2.2824e-17
6136.7903    2.3227e-17
6137.8053    2.2913e-17
6138.8202    2.2750e-17
6139.8352    2.3011e-17
6140.8502    2.2793e-17
6141.8651    2.2665e-17
6142.8801    2.2929e-17
6143.8951    2.2777e-17
6144.9100    2.2644e-17
6145.9250    2.2961e-17
6146.9399    2.2761e-17
6147.9549    2.3171e-17
6148.9699    2.3133e-17
6149.9848    2.1010e-17
6150.9998    2.1445e-17
6152.0148    2.2388e-17
6153.0297    2.2421e-17
6154.0447    2.2136e-17
6155.0596    2.1022e-17
6156.0746    2.1193e-17
6157.0896    2.1303e-17
6158.1045    2.1729e-17
6159.1195    2.0309e-17
6160.1345    2.1570e-17
6161.1494    2.2004e-17
6162.1644    2.1805e-17
6163.1793    2.2429e-17
6164.1943    2.1267e-17
6165.2093    2.2406e-17
6166.2242    2.2402e-17
6167.2392    2.2874e-17
6168.2541    2.1971e-17
6169.2691    2.0615e-17
6170.2841    2.1678e-17
6171.2990    2.1962e-17
6172.3140    2.3185e-17
6173.3290    2.0915e-17
6174.3439    2.2369e-17
6175.3589    2.3419e-17
6176.3738    2.2219e-17
6177.3888    2.1441e-17
6178.4038    2.0609e-17
6179.4187    2.2108e-17
6180.4337    2.1924e-17
6181.4487    2.2523e-17
6182.4636    2.3025e-17
6183.4786    2.2851e-17
6184.4935    2.2802e-17
6185.5085    2.2206e-17
6186.5235    2.1516e-17
6187.5384    2.2806e-17
6188.5534    2.3741e-17
6189.5683    2.2599e-17
6190.5833    2.1869e-17
6191.5983    2.1275e-17
6192.6132    2.1743e-17
6193.6282    2.2008e-17
6194.6432    2.1516e-17
6195.6581    2.1744e-17
6196.6731    2.2135e-17
6197.6880    2.2780e-17
6198.7030    2.1905e-17
6199.7180    2.1319e-17
6200.7329    2.1435e-17
6201.7479    2.1758e-17
6202.7629    2.1170e-17
6203.7778    2.1610e-17
6204.7928    2.2782e-17
6205.8077    2.3029e-17
6206.8227    2.1929e-17
6207.8377    2.1215e-17
6208.8526    2.2009e-17
6209.8676    2.1829e-17
6210.8826    2.1789e-17
6211.8975    2.1595e-17
6212.9125    2.1061e-17
6213.9274    2.1074e-17
6214.9424    2.1708e-17
6215.9574    2.2668e-17
6216.9723    2.2184e-17
6217.9873    2.1409e-17
6219.0022    2.0198e-17
6220.0172    2.0719e-17
6221.0322    2.1228e-17
6222.0471    2.1748e-17
6223.0621    2.1869e-17
6224.0771    2.1530e-17
6225.0920    2.1552e-17
6226.1070    2.0644e-17
6227.1219    2.0236e-17
6228.1369    2.0981e-17
6229.1519    2.1091e-17
6230.1668    2.0870e-17
6231.1818    2.1032e-17
6232.1968    2.1000e-17
6233.2117    2.0540e-17
6234.2267    2.1444e-17
6235.2416    2.1437e-17
6236.2566    1.9938e-17
6237.2716    2.0082e-17
6238.2865    2.2215e-17
6239.3015    2.1845e-17
6240.3165    2.0523e-17
6241.3314    2.1312e-17
6242.3464    1.9946e-17
6243.3613    2.0148e-17
6244.3763    2.0549e-17
6245.3913    2.1014e-17
6246.4062    2.0745e-17
6247.4212    2.1311e-17
6248.4361    2.0839e-17
6249.4511    2.1973e-17
6250.4661    2.1565e-17
6251.4810    2.0328e-17
6252.4960    2.0907e-17
6253.5110    2.1308e-17
6254.5259    2.2280e-17
6255.5409    2.2063e-17
6256.5558    2.0283e-17
6257.5708    2.0858e-17
6258.5858    2.0693e-17
6259.6007    2.0577e-17
6260.6157    2.0925e-17
6261.6307    2.1369e-17
6262.6456    2.1052e-17
6263.6606    2.1068e-17
6264.6755    2.0611e-17
6265.6905    2.0718e-17
6266.7055    2.0566e-17
6267.7204    1.9915e-17
6268.7354    2.0735e-17
6269.7503    2.0804e-17
6270.7653    2.0630e-17
6271.7803    2.0687e-17
6272.7952    2.0848e-17
6273.8102    2.0509e-17
6274.8252    1.9888e-17
6275.8401    1.9735e-17
6276.8551    1.9448e-17
6277.8700    1.8937e-17
6278.8850    1.9307e-17
6279.9000    2.0259e-17
6280.9149    1.9831e-17
6281.9299    2.0262e-17
6282.9449    2.1380e-17
6283.9598    1.9546e-17
6284.9748    2.0360e-17
6285.9897    2.1795e-17
6287.0047    2.1588e-17
6288.0197    2.0124e-17
6289.0346    2.0908e-17
6290.0496    2.0754e-17
6291.0645    1.9370e-17
6292.0795    2.0538e-17
6293.0945    2.1163e-17
6294.1094    1.8685e-17
6295.1244    1.9750e-17
6296.1394    2.0550e-17
6297.1543    1.7848e-17
6298.1693    1.9271e-17
6299.1842    2.2253e-17
6300.1992    2.1436e-17
6301.2142    1.8636e-17
6302.2291    2.3878e-17
6303.2441    2.1103e-17
6304.2591    2.0886e-17
6305.2740    2.0544e-17
6306.2890    2.1103e-17
6307.3039    2.0866e-17
6308.3189    2.0538e-17
6309.3339    2.0807e-17
6310.3488    2.1187e-17
6311.3638    2.1909e-17
6312.3788    2.1335e-17
6313.3937    2.0300e-17
6314.4087    1.9502e-17
6315.4236    1.9829e-17
6316.4386    1.9382e-17
6317.4536    1.9036e-17
6318.4685    2.0630e-17
6319.4835    2.0715e-17
6320.4984    2.0670e-17
6321.5134    2.0523e-17
6322.5284    2.0403e-17
6323.5433    2.0710e-17
6324.5583    2.0711e-17
6325.5733    2.0647e-17
6326.5882    2.0416e-17
6327.6032    1.9836e-17
6328.6181    2.0165e-17
6329.6331    1.9242e-17
6330.6481    2.0510e-17
6331.6630    2.0802e-17
6332.6780    2.0606e-17
6333.6930    2.0782e-17
6334.7079    2.0412e-17
6335.7229    2.0790e-17
6336.7378    2.0575e-17
6337.7528    2.0674e-17
6338.7678    2.0084e-17
6339.7827    1.9420e-17
6340.7977    2.0269e-17
6341.8126    2.0499e-17
6342.8276    1.9779e-17
6343.8426    2.1274e-17
6344.8575    2.1137e-17
6345.8725    2.0275e-17
6346.8875    2.0141e-17
6347.9024    2.1454e-17
6348.9174    1.8825e-17
6349.9323    2.1062e-17
6350.9473    2.1153e-17
6351.9623    2.1254e-17
6352.9772    2.2080e-17
6353.9922    2.0665e-17
6355.0072    2.0667e-17
6356.0221    2.0903e-17
6357.0371    2.0796e-17
6358.0520    2.1692e-17
6359.0670    2.0675e-17
6360.0820    1.9823e-17
6361.0969    2.0302e-17
6362.1119    2.1253e-17
6363.1269    2.1103e-17
6364.1418    2.1202e-17
6365.1568    2.1915e-17
6366.1717    2.1907e-17
6367.1867    2.1049e-17
6368.2017    2.1365e-17
6369.2166    2.1044e-17
6370.2316    2.0906e-17
6371.2465    2.0051e-17
6372.2615    2.0307e-17
6373.2765    2.0954e-17
6374.2914    2.0306e-17
6375.3064    1.9968e-17
6376.3214    2.1219e-17
6377.3363    2.1126e-17
6378.3513    2.0125e-17
6379.3662    2.0154e-17
6380.3812    2.1007e-17
6381.3962    2.0484e-17
6382.4111    2.0328e-17
6383.4261    2.1270e-17
6384.4411    2.1359e-17
6385.4560    2.0509e-17
6386.4710    2.0506e-17
6387.4859    2.0170e-17
6388.5009    2.0286e-17
6389.5159    2.1828e-17
6390.5308    2.0617e-17
6391.5458    2.0119e-17
6392.5607    1.9872e-17
6393.5757    2.0092e-17
6394.5907    1.9428e-17
6395.6056    1.9597e-17
6396.6206    1.8861e-17
6397.6356    1.8925e-17
6398.6505    1.9884e-17
6399.6655    1.9741e-17
6400.6804    2.1335e-17
6401.6954    2.1279e-17
6402.7104    2.0899e-17
6403.7253    2.1180e-17
6404.7403    2.0346e-17
6405.7553    1.9805e-17
6406.7702    1.9387e-17
6407.7852    2.1873e-17
6408.8001    2.0738e-17
6409.8151    2.0856e-17
6410.8301    2.1239e-17
6411.8450    2.1141e-17
6412.8600    1.9119e-17
6413.8750    2.1026e-17
6414.8899    2.2158e-17
6415.9049    2.0913e-17
6416.9198    2.1454e-17
6417.9348    2.0351e-17
6418.9498    1.9702e-17
6419.9647    1.9846e-17
6420.9797    2.0265e-17
6421.9946    2.0685e-17
6423.0096    2.1312e-17
6424.0246    1.9901e-17
6425.0395    1.9626e-17
6426.0545    1.9737e-17
6427.0695    1.9281e-17
6428.0844    1.9920e-17
6429.0994    2.0405e-17
6430.1143    2.0622e-17
6431.1293    2.0796e-17
6432.1443    1.9852e-17
6433.1592    1.9450e-17
6434.1742    2.0285e-17
6435.1892    2.0053e-17
6436.2041    1.9504e-17
6437.2191    2.0181e-17
6438.2340    2.0388e-17
6439.2490    2.0178e-17
6440.2640    1.9582e-17
6441.2789    2.0559e-17
6442.2939    2.0839e-17
6443.3088    2.0585e-17
6444.3238    2.0607e-17
6445.3388    2.0042e-17
6446.3537    1.9861e-17
6447.3687    1.9371e-17
6448.3837    2.0618e-17
6449.3986    2.0676e-17
6450.4136    2.0450e-17
6451.4285    2.0121e-17
6452.4435    2.0486e-17
6453.4585    1.9714e-17
6454.4734    1.8467e-17
6455.4884    2.0100e-17
6456.5034    1.9148e-17
6457.5183    1.9195e-17
6458.5333    2.0707e-17
6459.5482    2.0655e-17
6460.5632    2.0776e-17
6461.5782    2.0022e-17
6462.5931    2.0085e-17
6463.6081    1.9198e-17
6464.6231    1.9117e-17
6465.6380    2.0646e-17
6466.6530    2.0642e-17
6467.6679    1.9593e-17
6468.6829    1.9686e-17
6469.6979    2.0365e-17
6470.7128    2.0484e-17
6471.7278    2.1478e-17
6472.7427    2.1063e-17
6473.7577    2.0548e-17
6474.7727    1.9877e-17
6475.7876    1.9602e-17
6476.8026    1.8903e-17
6477.8176    1.9726e-17
6478.8325    1.9256e-17
6479.8475    1.9070e-17
6480.8624    1.9894e-17
6481.8774    1.9855e-17
6482.8924    1.9997e-17
6483.9073    1.9920e-17
6484.9223    2.0051e-17
6485.9373    1.9410e-17
6486.9522    1.9123e-17
6487.9672    1.9679e-17
6488.9821    1.9727e-17
6489.9971    2.0312e-17
6491.0121    1.9616e-17
6492.0270    1.8966e-17
6493.0420    1.9625e-17
6494.0570    2.0320e-17
6495.0719    1.8866e-17
6496.0869    1.8190e-17
6497.1018    1.8933e-17
6498.1168    1.9526e-17
6499.1318    2.0058e-17
6500.1467    2.0490e-17
6501.1617    2.0273e-17
6502.1766    1.9466e-17
6503.1916    1.9078e-17
6504.2066    1.9598e-17
6505.2215    2.0111e-17
6506.2365    1.9492e-17
6507.2515    1.9741e-17
6508.2664    2.0113e-17
6509.2814    1.9022e-17
6510.2963    1.9534e-17
6511.3113    1.8950e-17
6512.3263    1.8752e-17
6513.3412    2.0407e-17
6514.3562    1.9724e-17
6515.3712    1.9009e-17
6516.3861    1.9876e-17
6517.4011    1.9783e-17
6518.4160    1.9949e-17
6519.4310    1.9599e-17
6520.4460    1.9116e-17
6521.4609    1.9375e-17
6522.4759    1.9857e-17
6523.4908    1.9600e-17
6524.5058    2.0289e-17
6525.5208    1.9964e-17
6526.5357    1.9948e-17
6527.5507    1.9282e-17
6528.5657    1.9252e-17
6529.5806    1.9509e-17
6530.5956    1.9327e-17
6531.6105    1.8954e-17
6532.6255    1.9612e-17
6533.6405    2.0565e-17
6534.6554    2.0481e-17
6535.6704    1.9488e-17
6536.6854    1.9982e-17
6537.7003    1.9713e-17
6538.7153    1.9498e-17
6539.7302    1.9105e-17
6540.7452    1.8658e-17
6541.7602    1.8830e-17
6542.7751    1.9231e-17
6543.7901    1.9732e-17
6544.8050    1.8926e-17
6545.8200    1.7913e-17
6546.8350    1.8207e-17
6547.8499    1.9533e-17
6548.8649    1.9417e-17
6549.8799    1.9338e-17
6550.8948    1.7987e-17
6551.9098    1.9187e-17
6552.9247    1.9183e-17
6553.9397    1.8789e-17
6554.9547    1.8474e-17
6555.9696    1.9095e-17
6556.9846    1.9766e-17
6557.9996    1.9623e-17
6559.0145    1.8774e-17
6560.0295    1.9040e-17
6561.0444    1.8666e-17
6562.0594    1.9047e-17
6563.0744    1.9429e-17
6564.0893    2.0742e-17
6565.1043    1.9574e-17
6566.1193    2.0082e-17
6567.1342    2.1082e-17
6568.1492    2.1942e-17
6569.1641    2.0411e-17
6570.1791    2.0371e-17
6571.1941    2.1115e-17
6572.2090    2.0846e-17
6573.2240    2.0757e-17
6574.2389    1.9540e-17
6575.2539    2.0240e-17
6576.2689    2.0919e-17
6577.2838    2.1290e-17
6578.2988    2.1580e-17
6579.3138    2.1298e-17
6580.3287    2.0575e-17
6581.3437    2.1141e-17
6582.3586    2.0509e-17
6583.3736    1.9596e-17
6584.3886    1.9628e-17
6585.4035    2.0228e-17
6586.4185    2.0197e-17
6587.4335    1.9874e-17
6588.4484    1.9547e-17
6589.4634    1.9903e-17
6590.4783    1.9636e-17
6591.4933    1.9637e-17
6592.5083    2.0193e-17
6593.5232    1.9183e-17
6594.5382    1.9888e-17
6595.5531    2.0597e-17
6596.5681    1.9250e-17
6597.5831    1.9358e-17
6598.5980    1.9938e-17
6599.6130    2.0250e-17
6600.6280    1.9757e-17
6601.6429    2.0032e-17
6602.6579    2.0627e-17
6603.6728    2.0545e-17
6604.6878    2.0728e-17
6605.7028    2.0608e-17
6606.7177    2.0992e-17
6607.7327    1.8910e-17
6608.7477    2.0517e-17
6609.7626    1.9933e-17
6610.7776    2.0163e-17
6611.7925    2.0031e-17
6612.8075    2.0154e-17
6613.8225    1.9916e-17
6614.8374    2.0708e-17
6615.8524    1.9937e-17
6616.8674    2.0004e-17
6617.8823    1.9630e-17
6618.8973    2.0540e-17
6619.9122    2.0783e-17
6620.9272    2.0061e-17
6621.9422    1.9872e-17
6622.9571    1.9311e-17
6623.9721    1.9066e-17
6624.9870    1.9326e-17
6626.0020    1.9665e-17
6627.0170    1.9777e-17
6628.0319    2.0520e-17
6629.0469    2.0304e-17
6630.0619    2.0156e-17
6631.0768    2.0337e-17
6632.0918    1.9728e-17
6633.1067    2.0849e-17
6634.1217    2.0902e-17
6635.1367    1.9499e-17
6636.1516    1.9887e-17
6637.1666    2.0464e-17
6638.1816    2.0094e-17
6639.1965    1.9953e-17
6640.2115    2.0103e-17
6641.2264    2.0225e-17
6642.2414    1.9357e-17
6643.2564    1.9263e-17
6644.2713    1.9392e-17
6645.2863    1.9068e-17
6646.3012    1.9113e-17
6647.3162    1.8745e-17
6648.3312    1.9654e-17
6649.3461    1.9128e-17
6650.3611    1.9330e-17
6651.3761    2.0304e-17
6652.3910    2.1072e-17
6653.4060    1.9525e-17
6654.4209    2.0005e-17
6655.4359    2.0023e-17
6656.4509    2.0178e-17
6657.4658    1.9835e-17
6658.4808    1.9359e-17
6659.4958    1.9987e-17
6660.5107    2.0541e-17
6661.5257    1.9497e-17
6662.5406    1.9549e-17
6663.5556    2.0018e-17
6664.5706    1.9068e-17
6665.5855    1.9080e-17
6666.6005    2.0483e-17
6667.6155    2.0577e-17
6668.6304    2.0226e-17
6669.6454    1.9932e-17
6670.6603    1.9547e-17
6671.6753    1.9490e-17
6672.6903    2.0077e-17
6673.7052    2.0193e-17
6674.7202    2.0033e-17
6675.7351    2.0612e-17
6676.7501    2.0715e-17
6677.7651    2.0800e-17
6678.7800    2.1532e-17
6679.7950    2.0861e-17
6680.8100    2.0219e-17
6681.8249    1.9511e-17
6682.8399    1.9852e-17
6683.8548    2.1050e-17
6684.8698    2.1333e-17
6685.8848    2.0476e-17
6686.8997    1.9494e-17
6687.9147    2.0480e-17
6688.9297    1.9967e-17
6689.9446    1.9500e-17
6690.9596    2.0436e-17
6691.9745    2.1569e-17
6692.9895    2.1491e-17
6694.0045    2.1777e-17
6695.0194    2.2706e-17
6696.0344    2.1901e-17
6697.0493    2.1410e-17
6698.0643    2.1151e-17
6699.0793    2.0636e-17
6700.0942    1.8873e-17
6701.1092    2.0446e-17
6702.1242    2.0415e-17
6703.1391    1.9791e-17
6704.1541    1.8946e-17
6705.1690    1.9572e-17
6706.1840    1.9700e-17
6707.1990    2.3961e-17
6708.2139    3.0581e-17
6709.2289    3.2230e-17
6710.2439    3.2510e-17
6711.2588    3.1886e-17
6712.2738    2.8397e-17
6713.2887    2.2984e-17
6714.3037    2.0068e-17
6715.3187    1.9464e-17
6716.3336    1.9665e-17
6717.3486    1.9886e-17
6718.3636    1.9597e-17
6719.3785    1.9366e-17
6720.3935    1.9207e-17
6721.4084    1.8507e-17
6722.4234    1.8656e-17
6723.4384    1.9753e-17
6724.4533    2.0184e-17
6725.4683    1.9529e-17
6726.4832    1.9805e-17
6727.4982    2.0354e-17
6728.5132    2.2350e-17
6729.5281    2.5859e-17
6730.5431    2.7038e-17
6731.5581    2.6576e-17
6732.5730    2.6351e-17
6733.5880    2.4088e-17
6734.6029    2.0958e-17
6735.6179    2.0192e-17
6736.6329    2.0632e-17
6737.6478    1.9643e-17
6738.6628    1.9117e-17
6739.6778    1.9827e-17
6740.6927    1.9704e-17
6741.7077    2.0117e-17
6742.7226    1.9975e-17
6743.7376    1.9910e-17
6744.7526    2.0415e-17
6745.7675    2.0067e-17
6746.7825    1.9443e-17
6747.7975    1.9364e-17
6748.8124    1.8813e-17
6749.8274    1.9847e-17
6750.8423    1.8836e-17
6751.8573    1.9201e-17
6752.8723    1.9589e-17
6753.8872    1.8406e-17
6754.9022    1.9476e-17
6755.9171    1.9597e-17
6756.9321    2.0752e-17
6757.9471    2.0607e-17
6758.9620    1.9496e-17
6759.9770    1.9413e-17
6760.9920    1.9280e-17
6762.0069    1.8381e-17
6763.0219    1.9793e-17
6764.0368    1.9410e-17
6765.0518    1.8942e-17
6766.0668    1.8805e-17
6767.0817    1.9454e-17
6768.0967    1.8800e-17
6769.1117    1.9656e-17
6770.1266    1.9771e-17
6771.1416    1.8177e-17
6772.1565    1.8110e-17
6773.1715    1.8928e-17
6774.1865    1.8519e-17
6775.2014    1.8237e-17
6776.2164    1.9516e-17
6777.2313    2.0128e-17
6778.2463    1.9556e-17
6779.2613    1.9338e-17
6780.2762    1.9480e-17
6781.2912    1.9587e-17
6782.3062    2.0113e-17
6783.3211    1.9599e-17
6784.3361    1.9820e-17
6785.3510    1.9222e-17
6786.3660    1.9809e-17
6787.3810    1.9591e-17
6788.3959    2.0005e-17
6789.4109    2.0165e-17
6790.4259    1.9497e-17
6791.4408    2.0331e-17
6792.4558    1.9849e-17
6793.4707    1.9928e-17
6794.4857    2.0439e-17
6795.5007    2.0538e-17
6796.5156    1.9784e-17
6797.5306    1.9763e-17
6798.5455    2.0293e-17
6799.5605    2.0017e-17
6800.5755    1.9716e-17
6801.5904    1.9733e-17
6802.6054    1.9334e-17
6803.6204    1.9128e-17
6804.6353    1.9270e-17
6805.6503    1.9528e-17
6806.6652    1.9716e-17
6807.6802    1.9324e-17
6808.6952    1.9532e-17
6809.7101    1.9682e-17
6810.7251    1.8630e-17
6811.7401    1.7756e-17
6812.7550    1.7815e-17
6813.7700    1.8714e-17
6814.7849    1.9242e-17
6815.7999    1.9084e-17
6816.8149    1.8530e-17
6817.8298    1.7850e-17
6818.8448    1.8760e-17
6819.8598    1.9434e-17
6820.8747    1.8876e-17
6821.8897    1.8846e-17
6822.9046    1.9037e-17
6823.9196    1.9155e-17
6824.9346    1.8981e-17
6825.9495    1.8005e-17
6826.9645    1.7698e-17
6827.9794    1.7711e-17
6828.9944    1.9125e-17
6830.0094    2.1076e-17
6831.0243    1.9950e-17
6832.0393    1.6969e-17
6833.0543    1.7625e-17
6834.0692    1.6206e-17
6835.0842    1.9040e-17
6836.0991    1.9671e-17
6837.1141    1.9709e-17
6838.1291    1.8780e-17
6839.1440    1.7672e-17
6840.1590    1.7104e-17
6841.1740    1.9422e-17
6842.1889    1.7998e-17
6843.2039    1.8863e-17
6844.2188    1.9984e-17
6845.2338    2.0193e-17
6846.2488    1.9048e-17
6847.2637    1.7196e-17
6848.2787    1.8734e-17
6849.2936    1.8114e-17
6850.3086    1.8832e-17
6851.3236    1.8241e-17
6852.3385    1.6717e-17
6853.3535    1.7274e-17
6854.3685    1.7379e-17
6855.3834    1.8421e-17
6856.3984    1.8678e-17
6857.4133    1.8085e-17
6858.4283    1.8002e-17
6859.4433    1.6827e-17
6860.4582    1.5454e-17
6861.4732    1.4882e-17
6862.4882    1.5807e-17
