# Spectrum combined from four exposures, the header of the first one is shown here
# SIMPLE  =                    T / Fits standard                                  
# BITPIX  =                   16 / Bits per pixel                                 
# NAXIS   =                    0 / Number of axes                                 
# EXTEND  =                    T / File may contain extensions                    
# ORIGIN  = 'NOAO-IRAF FITS Image Kernel July 2003' / FITS file originator        
# DATE    = '2020-08-26T17:50:05' / Date FITS file was generated                  
# IRAF-TLM= '2020-08-26T20:47:15' / Time of last modification                     
# COMMENT   FITS (Flexible Image Transport System) format is defined in 'Astronomy
# COMMENT   and Astrophysics', volume 376, page 359; bibcode: 2001A&A...376..359H 
# INSTRUME= 'GMOS-N  '           / Instrument used to acquire data                
# SEQEXVER= '20200825-60abaa92'  / Seqexec version                                
# OBJECT  = 'ZTF20abwzqzo'       / Object Name                                    
# OBSTYPE = 'OBJECT  '           / Observation type                               
# OBSCLASS= 'science '           / Observe class                                  
# GEMPRGID= 'GN-2020B-Q-901'     / Gemini programme ID                            
# OBSID   = 'GN-2020B-Q-901-49'  / Observation ID / Data label                    
# DATALAB = 'GN-2020B-Q-901-49-002' / DHS data label                              
# OBSERVER= 'B. Cooper'          / Observer                                       
# OBSERVAT= 'Gemini-North'       / Name of telescope (Gemini-North|Gemini-South)  
# TELESCOP= 'Gemini-North'       / Gemini-North                                   
# PARALLAX=                   0. / Parallax of Target                             
# RADVEL  =                   0. / Heliocentric Radial Velocity                   
# EPOCH   =                2000. / Epoch for Target coordinates                   
# EQUINOX =                2000. / Equinox of coordinate system                   
# TRKEQUIN=                2000. / Tracking equinox                               
# SSA     = 'J. Berghuis'        / SSA                                            
# RA      =     41.5137916666667 / Right Ascension                                
# DEC     =     3.32994444444444 / Declination of Target                          
# ELEVATIO=     59.1515305555556 / Current Elevation                              
# AZIMUTH =     118.751838888889 / Current Azimuth                                
# CRPA    =     4.58115293616703 / Current Cass Rotator Position Angle            
# HA      = '-01:47:12.13'       / Telescope hour angle                           
# LT      = '03:00:51.2'         / Local time at start of observation             
# TRKFRAME= 'FK5     '           / Tracking co-ordinate                           
# DECTRACK=                   0. / Differential tracking rate Dec                 
# TRKEPOCH=     59087.5288115881 / Differential tracking reference epoch          
# RATRACK =                   0. / Differential tracking rate RA                  
# FRAME   = 'FK5     '           / Target coordinate system                       
# PMDEC   =                   0. / Proper Motion in Declination                   
# PMRA    =                   0. / Proper Motion in RA                            
# WAVELENG=                5200. / Effective Target Wavelength                    
# RAWIQ   = '85-percentile'      / Raw Image Quality                              
# RAWCC   = '50-percentile'      / Raw Cloud Cover                                
# RAWWV   = 'UNKNOWN '           / Raw Water Vapour/Transparency                  
# RAWBG   = 'UNKNOWN '           / Raw Background                                 
# RAWPIREQ= 'YES     '                                                            
# RAWGEMQA= 'USABLE  '                                                            
# CGUIDMOD= 'Basic   '           / Carousel Mode                                  
# UT      = '13:00:51.7'         / UT at observation start                        
# M2BAFFLE= 'VISIBLE '           / Position of M2 baffle                          
# M2CENBAF= 'CLOSED  '           / Position of M2 central hole baffle             
# ST      = '00:59:55.7'         / Sidereal time at the start of the exposure     
# XOFFSET =    0.174951739158709 / Telescope offset in x in arcsec                
# YOFFSET =    0.476411087766997 / Telescope offset in y in arcsec                
# POFFSET =    0.175799585570408 / Telescope offset in p in arcsec                
# QOFFSET =    0.476098877645456 / Telescope offset in q in arcsec                
# RAOFFSET=   -0.261948178552181 / Telescope offset in RA in arcsec               
# DECOFFSE=     0.43469390073382 / Telescope offset in DEC in arcsec              
# RATRGOFF=                   0. / Target offset in RA in arcsec                  
# DECTRGOF=                   0. / Target offset in DEC in arcsec                 
# PA      =               308.66 / Sky Position Angle at start of exposure        
# IAA     =              179.898 / Instrument Alignment Angle                     
# SFRT2   =     178.841748696984 / Science fold rotation angle (degrees)          
# SFTILT  =              44.9296 / Science fold tilt angle (degrees)              
# SFLINEAR=               -1.997 / Science fold linear position (mm)              
# AOFOLD  = 'park-pos.'          / AO Pick-Off Mirror Position                    
# PWFS1_ST= 'parked  '           / PWFS1 probe state (frozen,guiding,parked)      
# PWFS2_ST= 'parked  '           / PWFS2 probe state (frozen,guiding,parked)      
# OIWFS_ST= 'guiding '           / OIWFS probe state (frozen,guiding,parked)      
# AOWFS_ST= 'parked  '           / AOWFS probe state (frozen,guiding,parked)      
# SCIBAND =                    1 / Science Ranking Band                           
# REQIQ   = 'Any     '           / Requested Image Quality                        
# REQCC   = '70-percentile'      / Requested Cloud Cover                          
# REQBG   = 'Any     '           / Requested Background                           
# REQWV   = 'Any     '           / Requested Water Vapour                         
# REQMAXAM=                   2. / Requested Maximum Airmass                      
# REQMINAM=                   1. / Requested Minimum Airmass                      
# NUMREQTW=                    1 / Number of Requested Timing Window REQTW entries
# REQTWS01= '2020-08-26T12:29:04.943' / Requested Timing Window 01 Start (UTC)    
# REQTWD01=               86400. / Requested Timing Window 01 Duration [seconds]  
# REQTWN01=                    0 / Requested Timing Window 01 Number of Repeats   
# REQTWP01=                   0. / Requested Timing Window 01 Repeat Period [secon
# OIARA   =             41.46215 / RA of OIWFS guide star                         
# OIADEC  =             3.324625 / Declination of OIWFS guide star                
# OIARV   =                   0. / OIWFS Heliocentric Radial Velocity             
# OIAWAVEL=                6500. / OIWFS Effective Target Wavelength              
# OIAEPOCH=                2000. / Epoch for OIWFS guide star coordinates         
# OIAEQUIN=                2000. / Equinox for OIWFS guide star coordinates       
# OIAFRAME= 'FK5     '           / OIWFS Target co-ordinate system                
# OIAOBJEC= '467-003673'         / Object Name for OIWFS, Chop A                  
# OIAPMDEC= -0.00260000000184945 / OIWFS Proper Motion in Declination             
# OIAPMRA = 4.00674350418113E-05 / OIWFS Proper Motion in RA                      
# OIAPARAL=                   0. / OIWFS Parallax of Target                       
# OIFREQ  =                 200. / OIWFS sampling frequency (Hz)                  
# HUMIDITY=                16.46 / The Relative Humidity (fraction, 0..101).      
# TAMBIENT=                 2.12 / The ambient temp (C).                          
# TAMBIEN2=               35.816 / The ambient temp (F).                          
# PRESSURE=     462.900501533147 / The atmospheric pressure (mm Hg).              
# PRESSUR2=               61715. / The atmospheric pressure (Pa).                 
# DEWPOINT=    -20.9994296995032 / The dew point (C).                             
# DEWPOIN2=     -5.7989734591057 / The dew point (F).                             
# WINDSPEE=            2.4950534 / The wind speed (m/s).                          
# WINDSPE2=     5.58127550107373 / The wind speed (mph).                          
# WINDDIRE=                65.61 / The wind direction (degrees).                  
# INPORT  =                    5 / Number of ISS port where GMOS was located      
# GMOSCC  = 'GMOS-N (V7-13)'     / GMOS components controller s/w                 
# TIME-OBS= '13:00:52.2'         / Time of observation                            
# PREIMAGE=                    F / MOS pre-imaging                                
# CONID   = 'ARC-III '           / Detector controller ID                         
# DETECTOR= 'GMOS-N + Hamamatsu' / Detector name                                  
# DEWAR   = 'Lab Cryostat'       / Dewar name                                     
# ARRYTMPD=             -102.657 / Array temperature D (Celsius)                  
# ARRYTMPA=              -96.234 / Array temperature A (Celsius)                  
# ARRYTMPB=              -95.858 / Array temperature B (Celsius)                  
# ARRYTMPC=              -95.076 / Array temperature C (Celsius)                  
# ARRYTSET=               -102.7 / Array temperature Setpoint (Celsius)           
# DETSIZE = '[1:6144,1:4224]'    / Detector size                                  
# NCCDS   =                    3 / Number of CCD chips                            
# NAMPS   =                    4 / Number of amplifiers                           
# SHUTTER = 'OPEN    '           / Shutter state during observation               
# AMPINTEG=                11880 / Amplifier integration time                     
# OBSEPOCH=     2020.65172428619 / Epoch at start of exposure                     
# TIMESYS = 'UTC     '           / Time system used                               
# DATE-OBS= '2020-08-26'         / UT Date of observation (YYYY-MM-DD)            
# GMOSTHT = 'WARNING '           / Shutter health                                 
# NSUBEXP =                    1 / Number of sub exposures                        
# UTSTART = '13:00:57.6167'      / UT at observation start                        
# UTEND   = '13:10:57.6167'      / UT at observation end                          
# EXPTIME =                 600. / Exposure time in seconds                       
# ELAPSED =                 600. / Elapsed observation time in seconds            
# DARKTIME=     621.083354949951 / Dark current integration in seconds            
# MASKID  =             10005354 / Mask/IFU barcode                               
# MASKNAME= '1.0arcsec'          / Mask name                                      
# MASKTYP =                    1 / Mask/IFU type (0=none/-1=IFU/1=mask)           
# MASKLOC =                    0 / Mask/IFU location (-1=unknown/0=FP/1=cassette) 
# FILTER1 = 'open1-6 '           / Filter 1 name                                  
# FILTID1 =             20000018 / Filter 1 barcode                               
# FILTER2 = 'open2-8 '           / Filter 2 name                                  
# FILTID2 =             20000008 / Filter 2 barcode                               
# GRATING = 'B600+_G5307'        / Grating name                                   
# GRATID  =             30000018 / Grating barcode                                
# GRWLEN  =                 520. / Grating wavelength at slit (nm)                
# CENTWAVE=                 520. / Central wavelength (nm)                        
# GRORDER =                    1 / Grating order                                  
# GRTILT  =     55.0884895324707 / Grating tilt angle (degrees)                   
# GRSTEP  =     5887.98372465079 / Requested grating motor step position          
# DTAX    =                  84. / Detector translation X position (microns)      
# DTAY    =                  92. / Detector translation Y position (microns)      
# DTAZ    =                1862. / Detector translation Z position (microns)      
# DTAZST  =                1862. / Focus at observation start (microns)           
# DTAZEN  =                1862. / Focus at observation end (microns)             
# DTAZME  =                1862. / Mean focus during observation (microns)        
# DTMODE  = 'FOLLOW-XY'          / Detector translation stage mode                
# ADCMODE = 'STOP    '           / ADC mode                                       
# GMOSDC  = 'gmosdc-6.10'        / GMOS detector controller s/w                   
# DETTYPE = 'S10892-N'           / Detector array type                            
# DETID   = 'BI13-20-4k-1,BI12-09-4k-2,BI13-18-4k-2' / Chip IDs                   
# EXPOSURE=                 600. / Requested exposure time in seconds             
# ADCUSED =                    1 / ADC used? (0=yes/1=no)                         
# DETNROI =                    1 / No. regions of interest                        
# ADCENPST=                   0. / Start entrance prism angle of ADC              
# ADCENPEN=                   0. / End entrance prism angle of ADC                
# ADCENPME=                   0. / Mean entrance prism angle of ADC               
# ADCEXPST=                   0. / Start exit prism angle of ADC                  
# ADCEXPEN=                   0. / End exit prism angle of ADC                    
# ADCEXPME=                   0. / Mean exit prism angle of ADC                   
# ADCWLEN1=                   0. / Lower wavelength for ADC calculation           
# ADCWLEN2=                   0. / Upper wavelength for ADC calculation           
# DETRO1X =                    1 / ROI 1 X start                                  
# DETRO1XS=                 3072 / ROI 1 X size                                   
# DETRO1Y =                    1 / ROI 1 Y start                                  
# DETRO1YS=                 2112 / ROI 1 Y size                                   
# AIRMASS =     1.15188990932019 / Mean airmass for the observation               
# AMSTART =     1.16440957624516 / Airmass at start of exposure                   
# AMEND   =     1.13985420517773 / Airmass at end of exposure                     
# PROP_MD =                    F / Proprietary Metadata                           
# RELEASE = '2021-08-26'         / End of proprietary period YYY-MM-DD            
# NSCIEXT =                    1 / Number of science extensions                   
# PIXSCALE=               0.1614 / Pixel scale in Y in arcsec/pixel               
# NEXTEND =                    2 / Number of extensions                           
# OBSMODE = 'LONGSLIT'           / Observing mode (IMAGE|IFU|MOS|LONGSLIT)        
# GEM-TLM = '2020-08-26T20:46:47' / UT Last modification with GEMINI              
# GPREPARE= '2020-08-26T17:50:05' / UT Time stamp for GPREPARE                    
# TRIMMED = 'yes     '           / Overscan section trimmed                       
# GGAIN   = '2020-08-26T17:50:23' / UT Time stamp for GGAIN                       
# BIASIM  = 'zero    '           / Bias image used by GIREDUCE                    
# GIREDUCE= '2020-08-26T17:50:23' / UT Time stamp for GIREDUCE                    
# CTYPE1  = 'RA---TAN'           / R.A. in tangent plane projection               
# CTYPE2  = 'DEC--TAN'           / DEC. in tangent plane projection               
# CRPIX1  =        1568.29696921 / Ref pix of axis 1                              
# CRPIX2  =     1044.27820467852 / Ref pix of axis 2                              
# CRVAL1  =     41.5137187491146 / RA at Ref pix in decimal degrees               
# CRVAL2  =     3.33006526281499 / DEC at Ref pix in decimal degrees              
# CD1_1   = -2.80958734426091E-05 / WCS matrix element 1 1                        
# CD1_2   = 3.51226016704096E-05 / WCS matrix element 1 2                         
# CD2_1   = -3.51150649853661E-05 / WCS matrix element 2 1                        
# CD2_2   = -2.80978726385834E-05 / WCS matrix element 2 2                        
# CCDSUM  = '2 2     '           / CCD sum                                        
# GAIN    =                  1.0 / Amplifier gain                                 
# GAINMULT=                 1.65 / Gain multiplication                            
# RDNOISE =                 3.98 / Readout noise                                  
# RADECSYS= 'FK5     '           / R.A./DEC. coordinate system reference          
# EQUINOX =                2000. / Equinox of coordinate system                   
# MJD-OBS =     59087.5430774519 / MJD of start of obseration                     
# DISPAXIS=                    1 / Dispersion Axis                                
# GMOSAIC = '2020-08-26T17:50:24' / UT Time stamp for GMOSAIC                     
# GMSINTER= 'linear  '           / Interpolant used by GMOSAIC                    
# WMEF    = '2020-08-26T20:46:47' / UT Time stamp for WMEF                        
# GSFLATIM= 'flat1.fits'         / Flatfield Image used by gsreduce               
# GSREDUCE= '2020-08-26T17:50:25' / UT Time stamp for GSREDUCE                    
# GSAPPWAV= '2020-08-26T19:08:07' / UT Time stamp for GSAPPWAVE                   
# GSTRANSF= '2020-08-26T19:28:05' / UT Time stamp for GSTRANSFORM                 
# GSEXTRAC= '2020-08-26T20:44:38' / UT Time stamp for GSEXTRACT                   
# GSCALIBR= '2020-08-26T20:46:47' / UT Time stamp for GSCALIBRATE                 
# END
3672.4641    1.6403e-16
3673.4790    1.2680e-16
3674.4939    9.0527e-17
3675.5088    1.1139e-16
3676.5236    1.5959e-16
3677.5385    1.0368e-16
3678.5534    1.1321e-16
3679.5683    1.4183e-16
3680.5832    7.2266e-17
3681.5981    9.6257e-17
3682.6130    1.0783e-16
3683.6278    1.1539e-16
3684.6427    1.1264e-16
3685.6576    1.1282e-16
3686.6725    1.4236e-16
3687.6874    1.1396e-16
3688.7023    1.3787e-16
3689.7172    1.4757e-16
3690.7321    1.5112e-16
3691.7469    1.4607e-16
3692.7618    1.6015e-16
3693.7767    1.5664e-16
3694.7916    1.4726e-16
3695.8065    1.7674e-16
3696.8214    1.0387e-16
3697.8363    3.6366e-17
3698.8511    4.6230e-17
3699.8660    8.5038e-17
3700.8809    9.0219e-17
3701.8958    1.3925e-16
3702.9107    1.3918e-16
3703.9256    6.0764e-17
3704.9405    5.7194e-17
3705.9554    1.4170e-16
3706.9702    1.1084e-16
3707.9851    1.5957e-16
3709.0000    1.4570e-16
3710.0149    1.5259e-16
3711.0298    2.0828e-16
3712.0447    1.8954e-16
3713.0596    9.9551e-17
3714.0744    9.6348e-17
3715.0893    1.2231e-16
3716.1042    1.2453e-16
3717.1191    1.3423e-16
3718.1340    1.2286e-16
3719.1489    1.1371e-16
3720.1638    7.5335e-17
3721.1787    9.9605e-17
3722.1935    1.3074e-16
3723.2084    1.1711e-16
3724.2233    1.2844e-16
3725.2382    1.3813e-16
3726.2531    1.3727e-16
3727.2680    1.3150e-16
3728.2829    9.7365e-17
3729.2977    1.1215e-16
3730.3126    1.1165e-16
3731.3275    1.3091e-16
3732.3424    1.2405e-16
3733.3573    1.1894e-16
3734.3722    1.6892e-16
3735.3871    1.4344e-16
3736.4020    1.3335e-16
3737.4168    1.0909e-16
3738.4317    9.2798e-17
3739.4466    9.0126e-17
3740.4615    1.0721e-16
3741.4764    1.1418e-16
3742.4913   -1.1449e-18
3743.5062    3.3955e-17
3744.5210    5.2448e-17
3745.5359    8.3285e-17
3746.5508    9.9848e-17
3747.5657    1.1434e-16
3748.5806    1.1207e-16
3749.5955    1.1548e-16
3750.6104    1.0686e-16
3751.6253    1.5093e-16
3752.6401    1.3278e-16
3753.6550    7.1602e-17
3754.6699    3.5853e-17
3755.6848    1.1040e-16
3756.6997    1.2619e-16
3757.7146    1.2407e-16
3758.7295    1.3222e-16
3759.7443    9.7077e-17
3760.7592    6.7041e-17
3761.7741    1.1376e-16
3762.7890    1.0512e-16
3763.8039    5.1853e-17
3764.8188    5.8121e-17
3765.8337    6.9707e-17
3766.8486    1.2267e-16
3767.8634    1.1475e-16
3768.8783    6.7669e-17
3769.8932    4.8142e-17
3770.9081    9.9625e-17
3771.9230    1.4883e-16
3772.9379    1.3978e-16
3773.9528    1.1914e-16
3774.9676    1.5557e-16
3775.9825    1.3200e-16
3776.9974    8.3302e-17
3778.0123    1.1294e-16
3779.0272    1.4054e-16
3780.0421    1.8660e-16
3781.0570    1.7846e-16
3782.0718    1.4886e-16
3783.0867    1.5395e-16
3784.1016    1.2262e-16
3785.1165    7.2080e-17
3786.1314    8.3453e-17
3787.1463    9.3092e-17
3788.1612    1.1793e-16
3789.1761    1.3918e-16
3790.1909    1.4406e-16
3791.2058    9.9976e-17
3792.2207    1.1616e-16
3793.2356    1.5075e-16
3794.2505    1.3218e-16
3795.2654    1.1204e-16
3796.2803    1.1998e-16
3797.2951    1.6478e-16
3798.3100    1.4671e-16
3799.3249    1.1900e-16
3800.3398    1.0036e-16
3801.3547    1.0778e-16
3802.3696    1.2297e-16
3803.3845    1.5774e-16
3804.3994    1.6873e-16
3805.4142    1.4509e-16
3806.4291    1.3344e-16
3807.4440    1.0429e-16
3808.4589    1.2136e-16
3809.4738    1.0982e-16
3810.4887    1.0961e-16
3811.5036    8.7297e-17
3812.5184    8.8271e-17
3813.5333    9.6370e-17
3814.5482    1.2688e-16
3815.5631    1.1643e-16
3816.5780    7.7466e-17
3817.5929    1.0934e-16
3818.6078    1.1866e-16
3819.6227    1.0291e-16
3820.6375    1.0239e-16
3821.6524    1.0632e-16
3822.6673    7.8980e-17
3823.6822    7.6736e-17
3824.6971    1.0605e-16
3825.7120    1.3162e-16
3826.7269    1.2466e-16
3827.7417    1.2138e-16
3828.7566    1.0444e-16
3829.7715    9.3244e-17
3830.7864    1.1323e-16
3831.8013    1.1118e-16
3832.8162    1.2292e-16
3833.8311    1.2577e-16
3834.8460    1.5334e-16
3835.8608    1.3852e-16
3836.8757    1.0011e-16
3837.8906    9.4345e-17
3838.9055    1.4585e-16
3839.9204    1.3275e-16
3840.9353    1.1181e-16
3841.9502    1.0679e-16
3842.9650    1.0962e-16
3843.9799    1.2851e-16
3844.9948    1.3738e-16
3846.0097    1.1142e-16
3847.0246    1.0956e-16
3848.0395    1.1700e-16
3849.0544    1.1582e-16
3850.0693    8.0855e-17
3851.0841    8.8668e-17
3852.0990    1.1433e-16
3853.1139    1.1047e-16
3854.1288    1.0401e-16
3855.1437    7.3791e-17
3856.1586    8.5385e-17
3857.1735    1.2122e-16
3858.1883    1.1000e-16
3859.2032    1.0830e-16
3860.2181    9.7239e-17
3861.2330    1.1016e-16
3862.2479    1.2672e-16
3863.2628    1.4354e-16
3864.2777    1.0223e-16
3865.2926    1.0140e-16
3866.3074    9.6864e-17
3867.3223    1.0575e-16
3868.3372    1.0111e-16
3869.3521    8.6914e-17
3870.3670    8.3583e-17
3871.3819    1.0363e-16
3872.3968    9.8942e-17
3873.4116    1.1879e-16
3874.4265    1.1580e-16
3875.4414    1.0549e-16
3876.4563    1.0615e-16
3877.4712    9.8930e-17
3878.4861    1.1354e-16
3879.5010    1.0241e-16
3880.5158    1.0840e-16
3881.5307    1.4331e-16
3882.5456    1.2318e-16
3883.5605    1.2025e-16
3884.5754    1.1981e-16
3885.5903    9.9820e-17
3886.6052    1.1673e-16
3887.6201    1.0185e-16
3888.6349    1.0312e-16
3889.6498    1.0383e-16
3890.6647    1.0003e-16
3891.6796    1.0870e-16
3892.6945    1.1759e-16
3893.7094    1.1291e-16
3894.7243    9.2275e-17
3895.7391    7.8493e-17
3896.7540    7.7087e-17
3897.7689    9.0295e-17
3898.7838    1.0400e-16
3899.7987    1.1797e-16
3900.8136    1.0301e-16
3901.8285    9.4090e-17
3902.8434    9.5295e-17
3903.8582    8.7795e-17
3904.8731    1.1159e-16
3905.8880    1.2889e-16
3906.9029    1.0278e-16
3907.9178    9.5235e-17
3908.9327    9.6607e-17
3909.9476    9.7446e-17
3910.9624    8.6903e-17
3911.9773    7.5762e-17
3912.9922    8.9492e-17
3914.0071    8.9248e-17
3915.0220    8.8261e-17
3916.0369    9.8902e-17
3917.0518    9.3146e-17
3918.0667    1.0016e-16
3919.0815    9.8255e-17
3920.0964    9.9853e-17
3921.1113    9.8590e-17
3922.1262    1.0542e-16
3923.1411    1.0965e-16
3924.1560    8.8698e-17
3925.1709    8.1515e-17
3926.1857    9.5433e-17
3927.2006    1.0202e-16
3928.2155    1.0300e-16
3929.2304    9.3782e-17
3930.2453    8.8882e-17
3931.2602    8.9625e-17
3932.2751    8.7898e-17
3933.2900    9.2586e-17
3934.3048    6.9193e-17
3935.3197    8.8100e-17
3936.3346    9.9276e-17
3937.3495    1.0420e-16
3938.3644    9.1433e-17
3939.3793    9.4356e-17
3940.3942    9.6892e-17
3941.4090    1.1190e-16
3942.4239    1.1116e-16
3943.4388    1.0594e-16
3944.4537    1.0358e-16
3945.4686    9.5357e-17
3946.4835    9.8146e-17
3947.4984    9.9909e-17
3948.5133    8.7811e-17
3949.5281    8.7920e-17
3950.5430    9.5823e-17
3951.5579    9.3599e-17
3952.5728    9.1127e-17
3953.5877    9.1849e-17
3954.6026    8.5226e-17
3955.6175    8.1900e-17
3956.6323    8.3597e-17
3957.6472    8.5610e-17
3958.6621    8.2533e-17
3959.6770    8.8812e-17
3960.6919    9.6163e-17
3961.7068    9.4959e-17
3962.7217    8.7840e-17
3963.7366    6.8272e-17
3964.7514    6.8857e-17
3965.7663    8.5285e-17
3966.7812    1.0409e-16
3967.7961    1.0609e-16
3968.8110    9.0537e-17
3969.8259    7.6862e-17
3970.8408    7.3987e-17
3971.8556    8.2682e-17
3972.8705    9.2558e-17
3973.8854    8.5965e-17
3974.9003    9.5932e-17
3975.9152    8.8444e-17
3976.9301    7.9788e-17
3977.9450    8.4195e-17
3978.9599    9.3440e-17
3979.9747    9.8760e-17
3980.9896    9.5696e-17
3982.0045    9.7934e-17
3983.0194    9.8348e-17
3984.0343    9.1687e-17
3985.0492    8.6856e-17
3986.0641    1.0517e-16
3987.0789    1.0292e-16
3988.0938    8.3730e-17
3989.1087    8.2446e-17
3990.1236    8.1420e-17
3991.1385    6.9090e-17
3992.1534    8.8901e-17
3993.1683    8.9773e-17
3994.1831    8.4176e-17
3995.1980    8.7335e-17
3996.2129    6.7825e-17
3997.2278    7.8630e-17
3998.2427    9.3490e-17
3999.2576    8.6867e-17
4000.2725    1.0035e-16
4001.2874    8.5494e-17
4002.3022    7.4411e-17
4003.3171    8.7216e-17
4004.3320    9.2033e-17
4005.3469    9.7414e-17
4006.3618    9.8838e-17
4007.3767    8.4272e-17
4008.3916    9.3280e-17
4009.4064    1.0741e-16
4010.4213    1.0656e-16
4011.4362    1.0338e-16
4012.4511    8.9288e-17
4013.4660    8.1634e-17
4014.4809    8.0932e-17
4015.4958    8.1002e-17
4016.5107    8.5288e-17
4017.5255    7.9745e-17
4018.5404    8.0487e-17
4019.5553    8.2139e-17
4020.5702    7.4805e-17
4021.5851    9.6244e-17
4022.6000    7.8801e-17
4023.6149    6.4361e-17
4024.6297    7.2486e-17
4025.6446    7.6288e-17
4026.6595    7.8129e-17
4027.6744    8.2818e-17
4028.6893    8.5865e-17
4029.7042    8.6550e-17
4030.7191    9.9696e-17
4031.7340    9.5450e-17
4032.7488    9.4420e-17
4033.7637    8.5680e-17
4034.7786    7.8421e-17
4035.7935    9.5251e-17
4036.8084    8.7858e-17
4037.8233    8.1552e-17
4038.8382    8.1290e-17
4039.8530    7.5854e-17
4040.8679    8.6337e-17
4041.8828    8.1285e-17
4042.8977    8.3781e-17
4043.9126    8.4221e-17
4044.9275    8.8719e-17
4045.9424    9.8435e-17
4046.9573    8.8514e-17
4047.9721    8.7410e-17
4048.9870    8.2704e-17
4050.0019    8.2466e-17
4051.0168    9.5398e-17
4052.0317    1.0152e-16
4053.0466    9.0156e-17
4054.0615    8.2718e-17
4055.0763    9.1319e-17
4056.0912    8.5049e-17
4057.1061    8.2337e-17
4058.1210    8.4167e-17
4059.1359    8.6166e-17
4060.1508    7.9493e-17
4061.1657    8.3670e-17
4062.1806    8.2383e-17
4063.1954    8.1508e-17
4064.2103    8.5277e-17
4065.2252    9.0227e-17
4066.2401    1.0048e-16
4067.2550    9.0832e-17
4068.2699    6.4288e-17
4069.2848    7.6886e-17
4070.2996    7.8453e-17
4071.3145    8.9504e-17
4072.3294    9.2872e-17
4073.3443    9.5242e-17
4074.3592    8.7548e-17
4075.3741    8.4232e-17
4076.3890    9.7799e-17
4077.4039    9.0595e-17
4078.4187    8.3018e-17
4079.4336    7.4463e-17
4080.4485    8.5811e-17
4081.4634    8.3632e-17
4082.4783    9.1409e-17
4083.4932    7.5242e-17
4084.5081    7.2715e-17
4085.5229    7.8718e-17
4086.5378    9.1976e-17
4087.5527    1.0199e-16
4088.5676    9.5294e-17
4089.5825    9.2559e-17
4090.5974    8.8228e-17
4091.6123    7.8391e-17
4092.6271    8.6830e-17
4093.6420    9.1287e-17
4094.6569    8.9027e-17
4095.6718    8.2865e-17
4096.6867    9.1207e-17
4097.7016    8.8476e-17
4098.7165    9.4391e-17
4099.7314    8.8085e-17
4100.7462    8.6881e-17
4101.7611    9.4348e-17
4102.7760    8.9140e-17
4103.7909    7.7067e-17
4104.8058    8.3588e-17
4105.8207    7.6809e-17
4106.8356    8.5260e-17
4107.8504    9.5420e-17
4108.8653    9.5172e-17
4109.8802    9.2618e-17
4110.8951    8.7784e-17
4111.9100    9.6381e-17
4112.9249    9.3967e-17
4113.9398    1.0224e-16
4114.9547    1.0147e-16
4115.9695    7.8308e-17
4116.9844    7.9265e-17
4117.9993    8.8004e-17
4119.0142    8.2706e-17
4120.0291    9.1516e-17
4121.0440    9.2485e-17
4122.0589    8.0682e-17
4123.0737    7.9446e-17
4124.0886    9.2769e-17
4125.1035    8.9827e-17
4126.1184    7.6135e-17
4127.1333    7.6186e-17
4128.1482    9.3011e-17
4129.1631    9.9349e-17
4130.1780    7.5134e-17
4131.1928    7.7373e-17
4132.2077    8.5992e-17
4133.2226    8.0669e-17
4134.2375    8.2224e-17
4135.2524    9.3536e-17
4136.2673    9.3719e-17
4137.2822    8.8030e-17
4138.2970    8.9215e-17
4139.3119    8.3771e-17
4140.3268    7.6197e-17
4141.3417    8.1953e-17
4142.3566    8.7822e-17
4143.3715    8.5484e-17
4144.3864    9.0360e-17
4145.4013    8.9242e-17
4146.4161    9.4697e-17
4147.4310    9.8134e-17
4148.4459    9.2300e-17
4149.4608    8.4900e-17
4150.4757    8.9302e-17
4151.4906    9.7741e-17
4152.5055    1.0096e-16
4153.5203    9.5103e-17
4154.5352    9.3654e-17
4155.5501    7.9532e-17
4156.5650    8.4068e-17
4157.5799    9.4896e-17
4158.5948    9.2381e-17
4159.6097    8.7145e-17
4160.6246    7.4910e-17
4161.6394    7.4675e-17
4162.6543    7.5469e-17
4163.6692    8.2830e-17
4164.6841    9.2002e-17
4165.6990    8.3060e-17
4166.7139    8.6836e-17
4167.7288    8.9890e-17
4168.7436    8.0861e-17
4169.7585    7.7860e-17
4170.7734    8.6519e-17
4171.7883    1.0028e-16
4172.8032    9.5526e-17
4173.8181    9.0928e-17
4174.8330    9.2933e-17
4175.8479    9.7033e-17
4176.8627    9.8231e-17
4177.8776    8.9513e-17
4178.8925    8.2391e-17
4179.9074    9.5981e-17
4180.9223    8.4189e-17
4181.9372    8.6329e-17
4182.9521    7.7084e-17
4183.9669    7.6242e-17
4184.9818    8.2021e-17
4185.9967    9.1928e-17
4187.0116    1.0116e-16
4188.0265    8.8267e-17
4189.0414    8.2336e-17
4190.0563    7.5559e-17
4191.0711    7.4321e-17
4192.0860    8.4062e-17
4193.1009    7.5121e-17
4194.1158    7.3561e-17
4195.1307    7.7986e-17
4196.1456    7.3521e-17
4197.1605    8.0645e-17
4198.1754    8.9538e-17
4199.1902    9.2635e-17
4200.2051    8.2948e-17
4201.2200    7.2262e-17
4202.2349    8.0462e-17
4203.2498    9.0535e-17
4204.2647    9.7024e-17
4205.2796    9.0961e-17
4206.2944    8.4743e-17
4207.3093    8.3730e-17
4208.3242    8.5160e-17
4209.3391    9.0458e-17
4210.3540    7.8080e-17
4211.3689    7.5492e-17
4212.3838    8.0262e-17
4213.3987    8.7806e-17
4214.4135    9.4866e-17
4215.4284    8.2667e-17
4216.4433    8.2324e-17
4217.4582    8.1878e-17
4218.4731    8.2028e-17
4219.4880    8.0577e-17
4220.5029    8.5151e-17
4221.5177    8.9134e-17
4222.5326    8.1960e-17
4223.5475    9.6686e-17
4224.5624    8.2053e-17
4225.5773    7.6613e-17
4226.5922    8.3232e-17
4227.6071    8.8031e-17
4228.6220    8.2214e-17
4229.6368    9.5077e-17
4230.6517    8.8380e-17
4231.6666    1.0072e-16
4232.6815    8.6622e-17
4233.6964    9.2940e-17
4234.7113    9.4017e-17
4235.7262    9.6070e-17
4236.7410    9.9131e-17
4237.7559    9.4073e-17
4238.7708    8.5554e-17
4239.7857    8.4132e-17
4240.8006    8.4004e-17
4241.8155    8.1134e-17
4242.8304    7.7122e-17
4243.8453    7.8983e-17
4244.8601    8.0227e-17
4245.8750    8.7818e-17
4246.8899    1.0029e-16
4247.9048    9.3787e-17
4248.9197    8.5176e-17
4249.9346    7.4038e-17
4250.9495    7.3365e-17
4251.9643    8.0267e-17
4252.9792    8.0011e-17
4253.9941    7.7616e-17
4255.0090    7.5370e-17
4256.0239    7.9616e-17
4257.0388    8.9146e-17
4258.0537    9.0000e-17
4259.0686    8.6560e-17
4260.0834    8.6320e-17
4261.0983    8.6486e-17
4262.1132    8.2460e-17
4263.1281    7.8428e-17
4264.1430    8.2663e-17
4265.1579    7.8308e-17
4266.1728    8.2904e-17
4267.1876    8.3123e-17
4268.2025    7.0928e-17
4269.2174    7.7020e-17
4270.2323    8.7105e-17
4271.2472    8.6374e-17
4272.2621    8.3766e-17
4273.2770    7.4049e-17
4274.2919    7.9539e-17
4275.3067    9.0140e-17
4276.3216    8.9832e-17
4277.3365    8.1933e-17
4278.3514    8.5067e-17
4279.3663    8.7712e-17
4280.3812    7.8231e-17
4281.3961    9.2339e-17
4282.4109    8.7599e-17
4283.4258    7.6797e-17
4284.4407    8.0930e-17
4285.4556    8.0651e-17
4286.4705    8.1478e-17
4287.4854    9.5100e-17
4288.5003    9.3405e-17
4289.5151    8.4783e-17
4290.5300    7.5188e-17
4291.5449    7.6222e-17
4292.5598    8.1741e-17
4293.5747    7.8349e-17
4294.5896    8.5705e-17
4295.6045    8.2236e-17
4296.6194    7.8454e-17
4297.6342    8.6478e-17
4298.6491    9.1540e-17
4299.6640    9.9631e-17
4300.6789    9.0598e-17
4301.6938    8.5405e-17
4302.7087    8.7374e-17
4303.7236    8.5749e-17
4304.7384    7.7748e-17
4305.7533    6.8377e-17
4306.7682    7.8805e-17
4307.7831    7.9819e-17
4308.7980    8.6122e-17
4309.8129    8.7412e-17
4310.8278    8.5189e-17
4311.8427    7.9258e-17
4312.8575    8.7522e-17
4313.8724    8.6860e-17
4314.8873    8.8340e-17
4315.9022    7.3184e-17
4316.9171    8.1306e-17
4317.9320    8.1487e-17
4318.9469    8.4370e-17
4319.9617    8.8575e-17
4320.9766    7.0125e-17
4321.9915    8.2353e-17
4323.0064    8.3916e-17
4324.0213    7.9748e-17
4325.0362    7.9501e-17
4326.0511    8.1093e-17
4327.0660    8.3303e-17
4328.0808    8.4500e-17
4329.0957    8.3005e-17
4330.1106    8.3416e-17
4331.1255    8.0037e-17
4332.1404    7.6229e-17
4333.1553    7.7285e-17
4334.1702    7.7005e-17
4335.1850    8.5693e-17
4336.1999    8.1399e-17
4337.2148    6.8489e-17
4338.2297    8.2622e-17
4339.2446    9.3827e-17
4340.2595    9.2228e-17
4341.2744    8.5437e-17
4342.2893    8.7972e-17
4343.3041    7.1312e-17
4344.3190    7.4400e-17
4345.3339    7.9556e-17
4346.3488    9.0803e-17
4347.3637    8.7804e-17
4348.3786    9.5239e-17
4349.3935    8.1797e-17
4350.4083    7.0246e-17
4351.4232    7.8537e-17
4352.4381    8.6626e-17
4353.4530    7.9638e-17
4354.4679    7.3179e-17
4355.4828    7.4207e-17
4356.4977    7.7929e-17
4357.5126    8.3483e-17
4358.5274    8.2853e-17
4359.5423    8.5448e-17
4360.5572    9.3438e-17
4361.5721    9.1084e-17
4362.5870    8.8082e-17
4363.6019    9.0671e-17
4364.6168    7.5714e-17
4365.6316    8.5263e-17
4366.6465    9.0396e-17
4367.6614    7.4825e-17
4368.6763    6.7931e-17
4369.6912    7.4357e-17
4370.7061    8.3935e-17
4371.7210    8.5713e-17
4372.7359    9.7353e-17
4373.7507    8.9849e-17
4374.7656    8.0257e-17
4375.7805    7.6701e-17
4376.7954    7.6387e-17
4377.8103    8.1647e-17
4378.8252    9.4532e-17
4379.8401    9.2781e-17
4380.8549    8.9181e-17
4381.8698    8.3131e-17
4382.8847    7.7546e-17
4383.8996    7.5730e-17
4384.9145    7.8786e-17
4385.9294    7.1579e-17
4386.9443    7.6643e-17
4387.9591    8.5835e-17
4388.9740    8.6130e-17
4389.9889    8.8160e-17
4391.0038    8.1995e-17
4392.0187    6.6148e-17
4393.0336    7.2439e-17
4394.0485    8.6418e-17
4395.0634    9.1947e-17
4396.0782    8.2857e-17
4397.0931    7.9692e-17
4398.1080    6.9756e-17
4399.1229    6.9131e-17
4400.1378    7.8536e-17
4401.1527    8.0634e-17
4402.1676    6.7904e-17
4403.1824    8.4194e-17
4404.1973    8.9400e-17
4405.2122    7.8623e-17
4406.2271    7.9140e-17
4407.2420    7.9596e-17
4408.2569    7.7305e-17
4409.2718    8.6022e-17
4410.2867    7.8767e-17
4411.3015    7.8047e-17
4412.3164    6.0770e-17
4413.3313    7.8674e-17
4414.3462    8.8349e-17
4415.3611    9.5258e-17
4416.3760    8.0916e-17
4417.3909    7.1952e-17
4418.4057    8.2704e-17
4419.4206    8.3056e-17
4420.4355    8.0944e-17
4421.4504    7.7320e-17
4422.4653    6.1824e-17
4423.4802    7.5387e-17
4424.4951    8.2158e-17
4425.5100    7.2486e-17
4426.5248    8.7672e-17
4427.5397    1.0223e-16
4428.5546    9.0057e-17
4429.5695    7.8755e-17
4430.5844    7.2426e-17
4431.5993    7.2413e-17
4432.6142    6.6416e-17
4433.6290    7.6469e-17
4434.6439    8.2510e-17
4435.6588    7.3634e-17
4436.6737    7.8435e-17
4437.6886    8.1872e-17
4438.7035    7.4101e-17
4439.7184    7.8041e-17
4440.7333    7.4515e-17
4441.7481    8.1065e-17
4442.7630    7.3798e-17
4443.7779    7.4127e-17
4444.7928    7.8688e-17
4445.8077    8.0096e-17
4446.8226    7.7870e-17
4447.8375    8.1548e-17
4448.8523    8.6696e-17
4449.8672    8.3765e-17
4450.8821    8.3467e-17
4451.8970    8.1309e-17
4452.9119    8.2532e-17
4453.9268    8.0821e-17
4454.9417    7.3711e-17
4455.9566    7.0261e-17
4456.9714    8.3737e-17
4457.9863    8.2583e-17
4459.0012    7.3534e-17
4460.0161    7.2404e-17
4461.0310    7.8436e-17
4462.0459    7.6467e-17
4463.0608    7.5987e-17
4464.0756    7.6579e-17
4465.0905    7.7764e-17
4466.1054    7.4999e-17
4467.1203    7.7014e-17
4468.1352    7.7391e-17
4469.1501    7.5412e-17
4470.1650    7.8380e-17
4471.1799    7.9960e-17
4472.1947    7.5257e-17
4473.2096    6.1945e-17
4474.2245    7.0002e-17
4475.2394    8.4093e-17
4476.2543    7.8293e-17
4477.2692    7.9275e-17
4478.2841    8.5501e-17
4479.2989    7.8783e-17
4480.3138    6.6746e-17
4481.3287    6.8079e-17
4482.3436    8.3203e-17
4483.3585    9.1048e-17
4484.3734    8.5227e-17
4485.3883    7.5611e-17
4486.4032    7.5266e-17
4487.4180    9.0602e-17
4488.4329    9.0133e-17
4489.4478    7.9141e-17
4490.4627    8.8436e-17
4491.4776    7.5613e-17
4492.4925    8.8178e-17
4493.5074    8.3612e-17
4494.5222    6.9237e-17
4495.5371    6.6098e-17
4496.5520    7.5481e-17
4497.5669    7.4059e-17
4498.5818    8.3945e-17
4499.5967    8.6139e-17
4500.6116    8.2858e-17
4501.6264    7.9715e-17
4502.6413    7.4498e-17
4503.6562    7.6644e-17
4504.6711    6.7419e-17
4505.6860    7.3890e-17
4506.7009    7.5580e-17
4507.7158    7.8879e-17
4508.7307    9.0240e-17
4509.7455    8.4257e-17
4510.7604    8.3968e-17
4511.7753    8.9008e-17
4512.7902    8.6538e-17
4513.8051    8.6088e-17
4514.8200    8.4736e-17
4515.8349    8.0349e-17
4516.8497    7.0339e-17
4517.8646    7.2598e-17
4518.8795    8.5347e-17
4519.8944    8.2956e-17
4520.9093    7.7870e-17
4521.9242    7.5089e-17
4522.9391    7.7986e-17
4523.9540    7.3722e-17
4524.9688    6.9871e-17
4525.9837    7.6018e-17
4526.9986    8.1583e-17
4528.0135    8.0494e-17
4529.0284    8.3646e-17
4530.0433    7.9622e-17
4531.0582    7.3488e-17
4532.0730    7.5674e-17
4533.0879    8.6809e-17
4534.1028    8.2002e-17
4535.1177    7.8428e-17
4536.1326    8.0605e-17
4537.1475    6.9690e-17
4538.1624    6.7794e-17
4539.1773    7.5608e-17
4540.1921    8.4162e-17
4541.2070    8.3271e-17
4542.2219    7.9318e-17
4543.2368    8.5969e-17
4544.2517    8.9435e-17
4545.2666    8.8288e-17
4546.2815    7.9681e-17
4547.2963    6.6605e-17
4548.3112    7.3222e-17
4549.3261    7.8699e-17
4550.3410    7.6540e-17
4551.3559    7.2818e-17
4552.3708    7.9439e-17
4553.3857    7.6858e-17
4554.4006    7.5650e-17
4555.4154    6.5720e-17
4556.4303    7.5100e-17
4557.4452    6.9158e-17
4558.4601    7.0931e-17
4559.4750    7.0534e-17
4560.4899    7.7396e-17
4561.5048    7.8394e-17
4562.5196    8.4084e-17
4563.5345    9.4267e-17
4564.5494    7.7365e-17
4565.5643    8.4304e-17
4566.5792    8.3686e-17
4567.5941    7.0993e-17
4568.6090    7.2402e-17
4569.6239    7.6861e-17
4570.6387    7.7225e-17
4571.6536    6.7380e-17
4572.6685    7.5948e-17
4573.6834    7.6538e-17
4574.6983    6.9288e-17
4575.7132    5.8528e-17
4576.7281    6.9614e-17
4577.7429    8.4424e-17
4578.7578    8.3632e-17
4579.7727    7.3103e-17
4580.7876    7.8100e-17
4581.8025    7.6996e-17
4582.8174    6.9332e-17
4583.8323    6.8703e-17
4584.8472    6.2096e-17
4585.8620    6.4722e-17
4586.8769    6.6186e-17
4587.8918    7.2105e-17
4588.9067    7.5929e-17
4589.9216    6.4278e-17
4590.9365    6.9696e-17
4591.9514    7.2864e-17
4592.9662    6.9237e-17
4593.9811    6.9692e-17
4594.9960    7.6167e-17
4596.0109    7.7174e-17
4597.0258    7.7487e-17
4598.0407    7.9606e-17
4599.0556    7.8566e-17
4600.0704    8.1451e-17
4601.0853    7.7355e-17
4602.1002    6.9807e-17
4603.1151    7.3411e-17
4604.1300    7.3758e-17
4605.1449    7.4977e-17
4606.1598    7.4295e-17
4607.1747    6.8627e-17
4608.1895    6.0739e-17
4609.2044    7.1858e-17
4610.2193    7.2001e-17
4611.2342    7.5020e-17
4612.2491    7.3712e-17
4613.2640    7.7952e-17
4614.2789    7.9441e-17
4615.2937    6.6182e-17
4616.3086    7.1575e-17
4617.3235    8.1532e-17
4618.3384    7.8994e-17
4619.3533    7.7248e-17
4620.3682    7.6439e-17
4621.3831    7.4027e-17
4622.3980    7.7115e-17
4623.4128    7.3005e-17
4624.4277    7.6615e-17
4625.4426    7.8151e-17
4626.4575    7.8119e-17
4627.4724    8.0105e-17
4628.4873    7.3279e-17
4629.5022    7.5232e-17
4630.5170    6.7637e-17
4631.5319    6.3441e-17
4632.5468    6.3164e-17
4633.5617    6.6715e-17
4634.5766    6.8165e-17
4635.5915    6.9427e-17
4636.6064    6.4056e-17
4637.6213    6.4670e-17
4638.6361    7.1970e-17
4639.6510    7.6308e-17
4640.6659    7.2079e-17
4641.6808    6.5185e-17
4642.6957    6.4789e-17
4643.7106    6.3480e-17
4644.7255    6.5253e-17
4645.7403    6.0529e-17
4646.7552    5.6115e-17
4647.7701    7.9023e-17
4648.7850    7.6557e-17
4649.7999    7.1738e-17
4650.8148    7.4470e-17
4651.8297    6.1457e-17
4652.8446    5.7149e-17
4653.8594    5.6115e-17
4654.8743    6.3204e-17
4655.8892    8.4215e-17
4656.9041    7.2216e-17
4657.9190    5.5344e-17
4658.9339    6.1548e-17
4659.9488    7.0628e-17
4660.9636    6.9424e-17
4661.9785    7.7085e-17
4662.9934    7.4599e-17
4664.0083    8.4874e-17
4665.0232    9.2502e-17
4666.0381    7.5895e-17
4667.0530    9.3135e-17
4668.0679    8.0244e-17
4669.0827    4.9350e-17
4670.0976    6.4681e-17
4671.1125    7.7020e-17
4672.1274    9.6478e-17
4673.1423    9.2347e-17
4674.1572    9.4676e-17
4675.1721    8.5397e-17
4676.1869    8.2863e-17
4677.2018    8.5816e-17
4678.2167    6.8595e-17
4679.2316    5.9664e-17
4680.2465    5.9685e-17
4681.2614    7.4100e-17
4682.2763    8.0692e-17
4683.2912    8.7466e-17
4684.3060    8.4601e-17
4685.3209    7.2466e-17
4686.3358    7.3008e-17
4687.3507    6.6189e-17
4688.3656    7.0558e-17
4689.3805    7.5148e-17
4690.3954    6.8677e-17
4691.4102    7.6539e-17
4692.4251    8.7154e-17
4693.4400    9.1228e-17
4694.4549    6.7030e-17
4695.4698    6.7260e-17
4696.4847    7.6697e-17
4697.4996    7.4386e-17
4698.5144    6.4775e-17
4699.5293    6.3713e-17
4700.5442    8.7279e-17
4701.5591    6.8349e-17
4702.5740    1.0028e-16
4703.5889    6.8902e-17
4704.6038    8.0417e-17
4705.6187    8.1973e-17
4706.6335    8.2413e-17
4707.6484    5.2456e-17
4708.6633    4.3480e-17
4709.6782    8.6347e-17
4710.6931    6.7472e-17
4711.7080    9.4076e-17
4712.7229    8.1095e-17
4713.7377    9.7259e-17
4714.7526    6.1707e-17
4715.7675    7.1444e-17
4716.7824    6.8692e-17
4717.7973    8.2173e-17
4718.8122    7.0529e-17
4719.8271    5.5613e-17
4720.8420    6.6507e-17
4721.8568    5.2636e-17
4722.8717    5.8900e-17
4723.8866    6.0260e-17
4724.9015    8.2249e-17
4725.9164    5.6235e-17
4726.9313    7.6229e-17
4727.9462    5.2545e-17
4728.9610    5.8458e-17
4729.9759    6.3887e-17
4730.9908    7.0404e-17
4732.0057    6.5059e-17
4733.0206    7.8943e-17
4734.0355    6.8713e-17
4735.0504    8.3165e-17
4736.0653    7.8193e-17
4737.0801    7.7841e-17
4738.0950    6.8950e-17
4739.1099    7.4990e-17
4740.1248    7.7790e-17
4741.1397    5.2807e-17
4742.1546    5.4050e-17
4743.1695    6.9622e-17
4744.1843    7.9631e-17
4745.1992    7.3449e-17
4746.2141    6.8127e-17
4747.2290    7.4117e-17
4748.2439    7.0423e-17
4749.2588    7.4296e-17
4750.2737    7.5942e-17
4751.2886    6.9140e-17
4752.3034    7.4405e-17
4753.3183    6.5750e-17
4754.3332    6.5377e-17
4755.3481    6.8862e-17
4756.3630    5.9305e-17
4757.3779    5.3878e-17
4758.3928    5.7214e-17
4759.4076    6.8845e-17
4760.4225    6.5844e-17
4761.4374    6.5951e-17
4762.4523    7.2890e-17
4763.4672    7.1007e-17
4764.4821    5.9316e-17
4765.4970    5.3256e-17
4766.5119    6.6963e-17
4767.5267    7.0193e-17
4768.5416    6.5524e-17
4769.5565    5.9146e-17
4770.5714    6.5982e-17
4771.5863    6.4167e-17
4772.6012    6.5222e-17
4773.6161    5.3791e-17
4774.6309    6.4583e-17
4775.6458    6.1461e-17
4776.6607    7.3658e-17
4777.6756    7.6051e-17
4778.6905    5.4600e-17
4779.7054    4.8506e-17
4780.7203    6.4910e-17
4781.7352    6.6407e-17
4782.7500    6.5410e-17
4783.7649    6.8537e-17
4784.7798    5.9572e-17
4785.7947    6.6500e-17
4786.8096    6.3975e-17
4787.8245    7.3398e-17
4788.8394    6.5950e-17
4789.8542    6.8147e-17
4790.8691    7.3426e-17
4791.8840    7.6759e-17
4792.8989    7.1652e-17
4793.9138    6.2539e-17
4794.9287    6.5409e-17
4795.9436    6.0585e-17
4796.9584    6.3715e-17
4797.9733    5.9956e-17
4798.9882    5.2289e-17
4800.0031    5.3743e-17
4801.0180    6.4195e-17
4802.0329    6.9914e-17
4803.0478    5.5258e-17
4804.0627    6.0778e-17
4805.0775    6.7407e-17
4806.0924    7.4883e-17
4807.1073    7.1491e-17
4808.1222    5.0042e-17
4809.1371    5.4665e-17
4810.1520    6.2086e-17
4811.1669    6.0633e-17
4812.1817    6.2888e-17
4813.1966    7.2532e-17
4814.2115    6.8817e-17
4815.2264    6.8928e-17
4816.2413    6.7874e-17
4817.2562    6.3413e-17
4818.2711    6.2733e-17
4819.2860    6.9693e-17
4820.3008    6.6542e-17
4821.3157    5.7633e-17
4822.3306    6.2079e-17
4823.3455    6.8585e-17
4824.3604    5.3141e-17
4825.3753    6.1908e-17
4826.3902    5.4608e-17
4827.4050    6.7135e-17
4828.4199    7.9327e-17
4829.4348    6.5705e-17
4830.4497    6.1993e-17
4831.4646    7.5458e-17
4832.4795    6.6176e-17
4833.4944    7.4099e-17
4834.5093    7.7010e-17
4835.5241    6.0485e-17
4836.5390    6.0449e-17
4837.5539    6.3672e-17
4838.5688    6.1087e-17
4839.5837    6.1144e-17
4840.5986    6.8530e-17
4841.6135    4.7168e-17
4842.6283    5.5288e-17
4843.6432    6.8184e-17
4844.6581    7.8770e-17
4845.6730    8.0251e-17
4846.6879    5.7003e-17
4847.7028    7.0030e-17
4848.7177    7.8000e-17
4849.7326    6.8035e-17
4850.7474    5.6423e-17
4851.7623    5.9499e-17
4852.7772    6.1195e-17
4853.7921    7.0386e-17
4854.8070    7.3525e-17
4855.8219    6.6888e-17
4856.8368    4.9456e-17
4857.8516    5.6552e-17
4858.8665    5.4310e-17
4859.8814    6.1658e-17
4860.8963    6.9894e-17
4861.9112    6.4854e-17
4862.9261    6.6645e-17
4863.9410    6.1794e-17
4864.9559    6.4722e-17
4865.9707    5.6854e-17
4866.9856    5.5146e-17
4868.0005    6.2201e-17
4869.0154    4.8151e-17
4870.0303    6.2534e-17
4871.0452    6.4211e-17
4872.0601    5.5592e-17
4873.0749    5.8484e-17
4874.0898    5.2842e-17
4875.1047    5.9912e-17
4876.1196    5.3422e-17
4877.1345    6.9062e-17
4878.1494    5.2936e-17
4879.1643    6.5156e-17
4880.1792    5.4497e-17
4881.1940    5.3014e-17
4882.2089    7.9687e-17
4883.2238    6.5157e-17
4884.2387    5.3703e-17
4885.2536    5.0867e-17
4886.2685    5.6800e-17
4887.2834    5.4203e-17
4888.2982    5.6483e-17
4889.3131    5.9962e-17
4890.3280    6.5448e-17
4891.3429    6.7980e-17
4892.3578    5.6043e-17
4893.3727    6.2049e-17
4894.3876    6.5494e-17
4895.4024    6.0101e-17
4896.4173    6.3456e-17
4897.4322    6.0882e-17
4898.4471    6.2842e-17
4899.4620    7.0853e-17
4900.4769    6.0186e-17
4901.4918    6.2179e-17
4902.5067    5.8776e-17
4903.5215    6.4707e-17
4904.5364    5.9138e-17
4905.5513    5.4187e-17
4906.5662    6.6751e-17
4907.5811    5.7767e-17
4908.5960    5.6814e-17
4909.6109    6.1638e-17
4910.6257    6.7577e-17
4911.6406    6.0786e-17
4912.6555    6.5693e-17
4913.6704    6.3187e-17
4914.6853    5.9906e-17
4915.7002    5.9289e-17
4916.7151    6.5977e-17
4917.7300    5.2178e-17
4918.7448    6.4099e-17
4919.7597    6.0129e-17
4920.7746    5.8722e-17
4921.7895    5.4146e-17
4922.8044    4.9666e-17
4923.8193    5.8735e-17
4924.8342    6.0594e-17
4925.8490    5.6761e-17
4926.8639    6.5528e-17
4927.8788    6.4013e-17
4928.8937    6.3989e-17
4929.9086    6.2297e-17
4930.9235    7.0311e-17
4931.9384    5.9901e-17
4932.9533    5.4135e-17
4933.9681    5.8560e-17
4934.9830    6.8080e-17
4935.9979    5.4137e-17
4937.0128    6.2411e-17
4938.0277    6.9112e-17
4939.0426    6.2424e-17
4940.0575    6.4387e-17
4941.0723    5.3362e-17
4942.0872    5.8347e-17
4943.1021    6.0281e-17
4944.1170    6.3338e-17
4945.1319    5.3688e-17
4946.1468    5.7678e-17
4947.1617    5.7812e-17
4948.1766    6.1171e-17
4949.1914    6.3378e-17
4950.2063    5.8017e-17
4951.2212    5.4877e-17
4952.2361    5.1216e-17
4953.2510    4.8132e-17
4954.2659    5.4938e-17
4955.2808    5.9636e-17
4956.2956    5.6727e-17
4957.3105    6.1880e-17
4958.3254    5.5926e-17
4959.3403    5.4844e-17
4960.3552    5.6610e-17
4961.3701    6.4296e-17
4962.3850    5.8239e-17
4963.3999    6.1640e-17
4964.4147    6.6014e-17
4965.4296    5.8391e-17
4966.4445    5.5612e-17
4967.4594    6.3315e-17
4968.4743    7.2448e-17
4969.4892    6.2143e-17
4970.5041    6.6538e-17
4971.5189    6.3056e-17
4972.5338    6.4165e-17
4973.5487    5.7043e-17
4974.5636    6.2217e-17
4975.5785    6.0559e-17
4976.5934    4.7095e-17
4977.6083    5.0309e-17
4978.6232    4.6857e-17
4979.6380    5.1504e-17
4980.6529    4.7211e-17
4981.6678    6.4162e-17
4982.6827    6.8329e-17
4983.6976    6.0777e-17
4984.7125    6.7466e-17
4985.7274    6.0520e-17
4986.7422    5.4545e-17
4987.7571    4.9319e-17
4988.7720    5.7659e-17
4989.7869    6.0620e-17
4990.8018    6.5301e-17
4991.8167    5.0511e-17
4992.8316    6.4023e-17
4993.8465    5.6855e-17
4994.8613    5.9388e-17
4995.8762    4.9558e-17
4996.8911    5.1556e-17
4997.9060    5.1054e-17
4998.9209    4.9746e-17
4999.9358    5.2613e-17
5000.9507    6.2457e-17
5001.9655    5.8780e-17
5002.9804    5.8353e-17
5003.9953    5.0378e-17
5005.0102    5.1412e-17
5006.0251    5.6887e-17
5007.0400    5.2900e-17
5008.0549    5.6680e-17
5009.0697    5.4919e-17
5010.0846    6.3010e-17
5011.0995    5.1371e-17
5012.1144    5.8726e-17
5013.1293    5.8245e-17
5014.1442    5.5979e-17
5015.1591    6.0510e-17
5016.1740    5.5268e-17
5017.1888    5.3780e-17
5018.2037    4.8008e-17
5019.2186    5.1047e-17
5020.2335    5.9875e-17
5021.2484    6.3008e-17
5022.2633    4.6583e-17
5023.2782    4.3430e-17
5024.2930    4.7707e-17
5025.3079    5.7730e-17
5026.3228    5.6669e-17
5027.3377    5.1956e-17
5028.3526    5.5027e-17
5029.3675    5.4911e-17
5030.3824    4.7296e-17
5031.3973    4.3133e-17
5032.4121    5.4966e-17
5033.4270    5.5976e-17
5034.4419    5.7736e-17
5035.4568    5.3112e-17
5036.4717    4.9681e-17
5037.4866    5.5480e-17
5038.5015    6.0220e-17
5039.5163    5.6131e-17
5040.5312    5.8173e-17
5041.5461    5.8066e-17
5042.5610    5.6551e-17
5043.5759    5.3850e-17
5044.5908    5.5270e-17
5045.6057    5.7347e-17
5046.6206    5.2806e-17
5047.6354    5.0245e-17
5048.6503    5.4531e-17
5049.6652    4.9972e-17
5050.6801    4.9421e-17
5051.6950    5.7345e-17
5052.7099    4.7396e-17
5053.7248    5.5163e-17
5054.7396    5.1092e-17
5055.7545    5.7774e-17
5056.7694    5.4413e-17
5057.7843    5.7085e-17
5058.7992    6.0747e-17
5059.8141    5.4095e-17
5060.8290    5.4667e-17
5061.8439    6.5727e-17
5062.8587    5.7499e-17
5063.8736    4.8339e-17
5064.8885    6.0497e-17
5065.9034    5.8008e-17
5066.9183    6.1915e-17
5067.9332    6.3342e-17
5068.9481    5.4794e-17
5069.9629    5.6805e-17
5070.9778    5.4368e-17
5071.9927    5.7645e-17
5073.0076    5.4467e-17
5074.0225    5.0821e-17
5075.0374    5.4331e-17
5076.0523    5.3968e-17
5077.0672    5.4360e-17
5078.0820    5.5692e-17
5079.0969    5.0654e-17
5080.1118    4.8069e-17
5081.1267    5.6206e-17
5082.1416    6.0513e-17
5083.1565    5.6295e-17
5084.1714    4.9902e-17
5085.1862    5.6797e-17
5086.2011    5.7505e-17
5087.2160    5.0327e-17
5088.2309    4.9695e-17
5089.2458    5.9882e-17
5090.2607    5.7080e-17
5091.2756    5.7679e-17
5092.2905    6.0131e-17
5093.3053    5.8871e-17
5094.3202    5.8704e-17
5095.3351    5.3650e-17
5096.3500    5.3347e-17
5097.3649    5.4509e-17
5098.3798    5.5198e-17
5099.3947    5.6239e-17
5100.4095    5.4471e-17
5101.4244    5.5171e-17
5102.4393    5.7800e-17
5103.4542    5.6521e-17
5104.4691    5.3750e-17
5105.4840    5.3384e-17
5106.4989    5.7565e-17
5107.5137    5.5409e-17
5108.5286    5.1904e-17
5109.5435    5.6042e-17
5110.5584    5.3337e-17
5111.5733    5.3121e-17
5112.5882    5.0855e-17
5113.6031    5.3836e-17
5114.6180    5.6957e-17
5115.6328    5.0158e-17
5116.6477    5.1023e-17
5117.6626    5.3677e-17
5118.6775    6.0390e-17
5119.6924    6.5500e-17
5120.7073    5.8247e-17
5121.7222    5.4166e-17
5122.7370    5.6953e-17
5123.7519    4.9899e-17
5124.7668    5.3353e-17
5125.7817    5.5209e-17
5126.7966    5.8108e-17
5127.8115    5.6423e-17
5128.8264    6.0469e-17
5129.8413    5.3206e-17
5130.8561    5.1968e-17
5131.8710    4.9306e-17
5132.8859    4.7762e-17
5133.9008    5.3702e-17
5134.9157    5.9024e-17
5135.9306    6.0661e-17
5136.9455    5.3001e-17
5137.9603    5.1360e-17
5138.9752    5.8178e-17
5139.9901    5.9108e-17
5141.0050    5.7178e-17
5142.0199    5.6695e-17
5143.0348    5.6771e-17
5144.0497    6.1915e-17
5145.0646    6.0435e-17
5146.0794    5.6406e-17
5147.0943    5.0658e-17
5148.1092    5.2656e-17
5149.1241    5.1228e-17
5150.1390    4.8247e-17
5151.1539    4.8989e-17
5152.1688    5.2661e-17
5153.1836    5.3206e-17
5154.1985    5.0054e-17
5155.2134    4.6784e-17
5156.2283    5.1294e-17
5157.2432    5.2040e-17
5158.2581    5.1538e-17
5159.2730    4.9311e-17
5160.2879    5.3041e-17
5161.3027    5.8962e-17
5162.3176    5.6734e-17
5163.3325    4.8879e-17
5164.3474    5.7147e-17
5165.3623    5.5935e-17
5166.3772    5.6436e-17
5167.3921    5.3162e-17
5168.4069    5.4005e-17
5169.4218    5.7499e-17
5170.4367    5.8520e-17
5171.4516    6.4984e-17
5172.4665    5.1335e-17
5173.4814    5.0441e-17
5174.4963    6.0459e-17
5175.5112    5.8318e-17
5176.5260    5.6255e-17
5177.5409    5.3738e-17
5178.5558    5.5304e-17
5179.5707    5.1839e-17
5180.5856    5.1834e-17
5181.6005    5.3000e-17
5182.6154    5.3219e-17
5183.6302    5.8251e-17
5184.6451    5.4573e-17
5185.6600    5.4016e-17
5186.6749    5.4007e-17
5187.6898    5.4591e-17
5188.7047    5.5162e-17
5189.7196    5.2116e-17
5190.7345    5.2916e-17
5191.7493    5.3126e-17
5192.7642    5.2919e-17
5193.7791    5.2694e-17
5194.7940    5.1313e-17
5195.8089    5.3407e-17
5196.8238    5.8063e-17
5197.8387    5.4757e-17
5198.8535    5.3356e-17
5199.8684    5.2684e-17
5200.8833    5.1669e-17
5201.8982    5.5338e-17
5202.9131    5.5530e-17
5203.9280    5.0752e-17
5204.9429    5.7744e-17
5205.9577    5.1715e-17
5206.9726    5.5813e-17
5207.9875    5.4626e-17
5209.0024    5.7587e-17
5210.0173    5.3416e-17
5211.0322    5.0780e-17
5212.0471    5.2703e-17
5213.0620    5.8408e-17
5214.0768    5.7522e-17
5215.0917    5.0102e-17
5216.1066    5.2407e-17
5217.1215    5.3284e-17
5218.1364    5.5068e-17
5219.1513    5.4233e-17
5220.1662    5.4346e-17
5221.1810    5.4983e-17
5222.1959    5.4891e-17
5223.2108    5.2620e-17
5224.2257    5.2620e-17
5225.2406    5.6991e-17
5226.2555    5.2285e-17
5227.2704    5.4791e-17
5228.2853    5.8684e-17
5229.3001    5.8186e-17
5230.3150    5.6281e-17
5231.3299    5.5335e-17
5232.3448    5.7856e-17
5233.3597    5.5409e-17
5234.3746    5.4101e-17
5235.3895    5.3202e-17
5236.4043    5.3425e-17
5237.4192    5.8894e-17
5238.4341    5.5625e-17
5239.4490    5.1031e-17
5240.4639    4.8126e-17
5241.4788    5.4642e-17
5242.4937    5.4906e-17
5243.5086    5.7360e-17
5244.5234    5.0923e-17
5245.5383    5.1951e-17
5246.5532    5.2069e-17
5247.5681    4.7946e-17
5248.5830    5.2642e-17
5249.5979    5.8175e-17
5250.6128    5.5128e-17
5251.6276    6.1276e-17
5252.6425    5.1379e-17
5253.6574    4.8206e-17
5254.6723    4.9911e-17
5255.6872    5.1846e-17
5256.7021    5.1680e-17
5257.7170    4.8731e-17
5258.7319    5.2001e-17
5259.7467    5.1845e-17
5260.7616    4.5329e-17
5261.7765    5.2618e-17
5262.7914    5.2390e-17
5263.8063    5.1510e-17
5264.8212    5.1296e-17
5265.8361    5.5173e-17
5266.8509    5.3990e-17
5267.8658    5.2117e-17
5268.8807    5.4901e-17
5269.8956    5.8809e-17
5270.9105    5.5803e-17
5271.9254    5.8676e-17
5272.9403    5.2901e-17
5273.9552    4.7791e-17
5274.9700    5.0704e-17
5275.9849    6.0382e-17
5276.9998    5.9004e-17
5278.0147    6.1945e-17
5279.0296    5.7514e-17
5280.0445    5.0361e-17
5281.0594    5.0720e-17
5282.0742    5.7710e-17
5283.0891    5.1035e-17
5284.1040    5.4179e-17
5285.1189    5.4817e-17
5286.1338    5.2013e-17
5287.1487    5.0688e-17
5288.1636    4.6981e-17
5289.1785    5.2256e-17
5290.1933    5.1035e-17
5291.2082    4.9245e-17
5292.2231    5.0680e-17
5293.2380    5.4185e-17
5294.2529    5.2354e-17
5295.2678    5.5539e-17
5296.2827    5.6519e-17
5297.2975    5.1229e-17
5298.3124    5.5912e-17
5299.3273    5.2210e-17
5300.3422    4.7859e-17
5301.3571    5.6281e-17
5302.3720    5.3875e-17
5303.3869    5.4114e-17
5304.4017    5.4662e-17
5305.4166    5.4211e-17
5306.4315    5.6601e-17
5307.4464    5.4583e-17
5308.4613    4.9092e-17
5309.4762    4.7560e-17
5310.4911    5.4717e-17
5311.5060    5.7882e-17
5312.5208    5.8198e-17
5313.5357    5.7077e-17
5314.5506    5.5196e-17
5315.5655    5.1040e-17
5316.5804    5.0009e-17
5317.5953    4.7167e-17
5318.6102    5.4402e-17
5319.6250    5.4796e-17
5320.6399    4.9812e-17
5321.6548    5.0722e-17
5322.6697    5.2079e-17
5323.6846    5.4065e-17
5324.6995    5.0562e-17
5325.7144    4.9800e-17
5326.7293    5.0667e-17
5327.7441    4.6749e-17
5328.7590    5.5298e-17
5329.7739    5.5778e-17
5330.7888    4.8722e-17
5331.8037    5.0458e-17
5332.8186    5.8045e-17
5333.8335    5.4983e-17
5334.8483    5.7377e-17
5335.8632    5.5669e-17
5336.8781    5.3410e-17
5337.8930    5.1265e-17
5338.9079    5.4913e-17
5339.9228    5.8715e-17
5340.9377    5.9287e-17
5341.9526    5.7026e-17
5342.9674    5.8248e-17
5343.9823    5.2446e-17
5344.9972    5.8239e-17
5346.0121    5.8728e-17
5347.0270    5.3712e-17
5348.0419    6.1097e-17
5349.0568    5.7995e-17
5350.0716    5.2129e-17
5351.0865    5.3542e-17
5352.1014    5.3037e-17
5353.1163    5.6298e-17
5354.1312    6.4648e-17
5355.1461    5.9917e-17
5356.1610    5.4504e-17
5357.1759    5.7040e-17
5358.1907    5.5249e-17
5359.2056    5.5318e-17
5360.2205    5.6077e-17
5361.2354    5.5849e-17
5362.2503    5.2759e-17
5363.2652    6.0965e-17
5364.2801    5.2646e-17
5365.2949    5.2761e-17
5366.3098    5.2969e-17
5367.3247    5.7364e-17
5368.3396    5.5134e-17
5369.3545    5.7564e-17
5370.3694    5.4465e-17
5371.3843    5.4630e-17
5372.3992    5.1506e-17
5373.4140    5.4055e-17
5374.4289    5.4396e-17
5375.4438    5.5727e-17
5376.4587    4.9477e-17
5377.4736    5.4580e-17
5378.4885    5.4520e-17
5379.5034    5.4213e-17
5380.5182    5.4155e-17
5381.5331    5.2979e-17
5382.5480    5.2182e-17
5383.5629    4.9209e-17
5384.5778    5.2142e-17
5385.5927    4.9568e-17
5386.6076    5.1614e-17
5387.6225    5.2085e-17
5388.6373    4.9949e-17
5389.6522    4.9671e-17
5390.6671    4.9801e-17
5391.6820    4.8025e-17
5392.6969    5.6322e-17
5393.7118    5.8920e-17
5394.7267    5.0901e-17
5395.7415    5.4515e-17
5396.7564    5.7102e-17
5397.7713    5.6817e-17
5398.7862    5.2139e-17
5399.8011    4.8220e-17
5400.8160    4.7361e-17
5401.8309    4.8846e-17
5402.8458    5.2016e-17
5403.8606    5.5216e-17
5404.8755    5.1960e-17
5405.8904    5.2405e-17
5406.9053    5.7820e-17
5407.9202    5.3203e-17
5408.9351    5.4502e-17
5409.9500    5.0249e-17
5410.9648    5.2644e-17
5411.9797    5.2128e-17
5412.9946    5.2503e-17
5414.0095    5.3969e-17
5415.0244    5.3525e-17
5416.0393    5.0294e-17
5417.0542    5.1530e-17
5418.0690    5.1335e-17
5419.0839    5.1854e-17
5420.0988    5.2702e-17
5421.1137    5.2203e-17
5422.1286    5.3224e-17
5423.1435    5.4533e-17
5424.1584    5.2473e-17
5425.1733    5.2864e-17
5426.1881    5.3629e-17
5427.2030    5.4284e-17
5428.2179    5.3144e-17
5429.2328    5.3938e-17
5430.2477    5.4876e-17
5431.2626    5.1968e-17
5432.2775    5.0541e-17
5433.2923    5.3215e-17
5434.3072    5.0314e-17
5435.3221    5.3030e-17
5436.3370    5.2098e-17
5437.3519    5.2668e-17
5438.3668    5.3849e-17
5439.3817    5.6598e-17
5440.3966    5.7367e-17
5441.4114    5.6385e-17
5442.4263    5.6321e-17
5443.4412    5.5551e-17
5444.4561    5.4098e-17
5445.4710    5.3143e-17
5446.4859    5.1086e-17
5447.5008    5.1030e-17
5448.5156    5.3381e-17
5449.5305    5.3804e-17
5450.5454    5.1876e-17
5451.5603    5.0674e-17
5452.5752    5.1750e-17
5453.5901    5.4053e-17
5454.6050    5.4195e-17
5455.6199    5.0942e-17
5456.6347    5.3088e-17
5457.6496    5.5246e-17
5458.6645    5.4335e-17
5459.6794    5.5240e-17
5460.6943    5.5894e-17
5461.7092    5.3434e-17
5462.7241    5.2552e-17
5463.7389    5.4351e-17
5464.7538    5.4449e-17
5465.7687    5.1444e-17
5466.7836    5.1474e-17
5467.7985    5.1882e-17
5468.8134    5.3028e-17
5469.8283    5.3751e-17
5470.8432    5.3627e-17
5471.8580    5.3032e-17
5472.8729    5.3312e-17
5473.8878    5.0517e-17
5474.9027    5.6757e-17
5475.9176    5.6627e-17
5476.9325    5.1029e-17
5477.9474    4.8652e-17
5478.9622    5.2868e-17
5479.9771    5.5169e-17
5480.9920    5.2584e-17
5482.0069    5.0509e-17
5483.0218    5.2035e-17
5484.0367    5.2348e-17
5485.0516    5.2423e-17
5486.0665    5.1897e-17
5487.0813    5.4525e-17
5488.0962    5.3685e-17
5489.1111    5.0523e-17
5490.1260    4.8925e-17
5491.1409    5.0641e-17
5492.1558    4.7534e-17
5493.1707    4.9008e-17
5494.1855    5.0806e-17
5495.2004    5.3569e-17
5496.2153    5.0340e-17
5497.2302    5.2615e-17
5498.2451    5.4933e-17
5499.2600    5.2964e-17
5500.2749    5.1622e-17
5501.2898    5.4005e-17
5502.3046    5.5235e-17
5503.3195    5.4083e-17
5504.3344    5.4778e-17
5505.3493    5.4582e-17
5506.3642    5.2957e-17
5507.3791    5.1836e-17
5508.3940    5.0394e-17
5509.4088    5.2477e-17
5510.4237    5.1261e-17
5511.4386    5.1587e-17
5512.4535    5.0864e-17
5513.4684    5.2459e-17
5514.4833    5.1613e-17
5515.4982    5.2132e-17
5516.5130    4.8580e-17
5517.5279    4.6751e-17
5518.5428    5.3312e-17
5519.5577    5.4054e-17
5520.5726    5.5633e-17
5521.5875    5.5712e-17
5522.6024    4.9346e-17
5523.6173    5.2347e-17
5524.6321    5.2799e-17
5525.6470    5.2637e-17
5526.6619    5.2940e-17
5527.6768    4.9987e-17
5528.6917    5.1635e-17
5529.7066    4.9099e-17
5530.7215    5.1720e-17
5531.7363    5.4112e-17
5532.7512    5.4683e-17
5533.7661    5.2175e-17
5534.7810    5.1997e-17
5535.7959    4.8463e-17
5536.8108    4.6468e-17
5537.8257    4.9428e-17
5538.8406    5.5072e-17
5539.8554    5.4968e-17
5540.8703    4.7590e-17
5541.8852    4.9900e-17
5542.9001    5.8767e-17
5543.9150    5.2822e-17
5544.9299    4.9636e-17
5545.9448    5.4459e-17
5546.9596    5.1263e-17
5547.9745    5.0930e-17
5548.9894    5.1746e-17
5550.0043    4.8654e-17
5551.0192    5.2407e-17
5552.0341    4.8156e-17
5553.0490    5.1118e-17
5554.0639    4.9934e-17
5555.0787    5.1510e-17
5556.0936    4.9870e-17
5557.1085    5.1503e-17
5558.1234    5.1172e-17
5559.1383    5.1588e-17
5560.1532    5.2103e-17
5561.1681    5.5256e-17
5562.1829    5.0092e-17
5563.1978    5.4228e-17
5564.2127    4.8719e-17
5565.2276    5.0565e-17
5566.2425    4.9674e-17
5567.2574    5.1859e-17
5568.2723    5.0955e-17
5569.2872    5.0949e-17
5570.3020    5.1154e-17
5571.3169    5.0553e-17
5572.3318    5.0904e-17
5573.3467    5.1953e-17
5574.3616    7.7312e-17
5575.3765    8.0987e-17
5576.3914    6.9148e-17
5577.4062    6.0118e-17
5578.4211    5.6620e-17
5579.4360    6.8812e-17
5580.4509    2.6758e-17
5581.4658    6.4106e-17
5582.4807    5.3739e-17
5583.4956    5.2843e-17
5584.5105    5.2621e-17
5585.5253    5.3303e-17
5586.5402    5.2038e-17
5587.5551    5.2717e-17
5588.5700    5.4339e-17
5589.5849    5.4194e-17
5590.5998    5.1475e-17
5591.6147    5.2080e-17
5592.6295    5.1619e-17
5593.6444    4.9178e-17
5594.6593    5.0254e-17
5595.6742    5.2147e-17
5596.6891    5.2706e-17
5597.7040    5.1171e-17
5598.7189    5.1040e-17
5599.7338    5.1890e-17
5600.7486    5.1129e-17
5601.7635    4.9103e-17
5602.7784    4.9950e-17
5603.7933    5.0340e-17
5604.8082    5.1125e-17
5605.8231    5.2850e-17
5606.8380    5.3469e-17
5607.8528    4.7611e-17
5608.8677    4.6247e-17
5609.8826    5.0770e-17
5610.8975    5.3382e-17
5611.9124    5.3122e-17
5612.9273    5.1686e-17
5613.9422    4.8611e-17
5614.9570    4.8566e-17
5615.9719    5.0942e-17
5616.9868    5.1250e-17
5618.0017    4.8584e-17
5619.0166    5.1486e-17
5620.0315    5.3332e-17
5621.0464    4.8929e-17
5622.0613    4.7662e-17
5623.0761    5.0468e-17
5624.0910    5.1383e-17
5625.1059    5.0331e-17
5626.1208    4.9555e-17
5627.1357    5.1249e-17
5628.1506    5.0815e-17
5629.1655    4.8042e-17
5630.1803    4.8634e-17
5631.1952    4.9882e-17
5632.2101    5.0877e-17
5633.2250    4.8988e-17
5634.2399    5.0225e-17
5635.2548    4.9567e-17
5636.2697    4.7936e-17
5637.2846    4.9313e-17
5638.2994    4.7805e-17
5639.3143    5.0400e-17
5640.3292    4.8997e-17
5641.3441    4.8394e-17
5642.3590    4.5031e-17
5643.3739    4.8488e-17
5644.3888    5.1674e-17
5645.4036    4.9606e-17
5646.4185    4.8625e-17
5647.4334    4.8980e-17
5648.4483    5.0279e-17
5649.4632    5.1315e-17
5650.4781    5.0062e-17
5651.4930    5.1295e-17
5652.5079    4.7341e-17
5653.5227    4.9454e-17
5654.5376    4.9526e-17
5655.5525    4.3579e-17
5656.5674    4.9638e-17
5657.5823    5.1065e-17
5658.5972    5.1042e-17
5659.6121    5.0158e-17
5660.6269    4.8854e-17
5661.6418    4.6627e-17
5662.6567    5.0625e-17
5663.6716    4.6765e-17
5664.6865    5.1889e-17
5665.7014    4.9381e-17
5666.7163    4.9481e-17
5667.7312    4.9774e-17
5668.7460    4.8439e-17
5669.7609    4.8351e-17
5670.7758    4.9621e-17
5671.7907    4.9052e-17
5672.8056    5.0034e-17
5673.8205    4.9762e-17
5674.8354    4.8811e-17
5675.8502    5.0420e-17
5676.8651    5.0163e-17
5677.8800    4.7903e-17
5678.8949    4.8692e-17
5679.9098    4.6977e-17
5680.9247    4.8541e-17
5681.9396    4.5654e-17
5682.9545    4.7208e-17
5683.9693    4.9074e-17
5684.9842    5.1890e-17
5685.9991    4.9338e-17
5687.0140    5.4928e-17
5688.0289    5.0768e-17
5689.0438    4.6063e-17
5690.0587    4.6884e-17
5691.0735    4.7951e-17
5692.0884    5.0166e-17
5693.1033    5.2091e-17
5694.1182    5.0996e-17
5695.1331    4.9624e-17
5696.1480    4.9786e-17
5697.1629    4.7313e-17
5698.1778    4.6895e-17
5699.1926    4.7332e-17
5700.2075    5.0905e-17
5701.2224    5.1239e-17
5702.2373    5.0712e-17
5703.2522    4.7372e-17
5704.2671    4.5943e-17
5705.2820    4.5025e-17
5706.2968    4.9028e-17
5707.3117    4.9900e-17
5708.3266    4.7701e-17
5709.3415    4.8721e-17
5710.3564    5.0099e-17
5711.3713    4.8944e-17
5712.3862    4.7234e-17
5713.4010    4.7650e-17
5714.4159    4.9154e-17
5715.4308    4.8628e-17
5716.4457    4.8174e-17
5717.4606    4.6890e-17
5718.4755    4.6641e-17
5719.4904    4.4994e-17
5720.5053    4.3905e-17
5721.5201    4.5865e-17
5722.5350    4.6536e-17
5723.5499    4.4274e-17
5724.5648    4.4843e-17
5725.5797    4.5278e-17
5726.5946    4.4180e-17
5727.6095    4.4141e-17
5728.6243    4.5825e-17
5729.6392    4.7703e-17
5730.6541    4.8120e-17
5731.6690    4.6757e-17
5732.6839    4.5331e-17
5733.6988    4.6624e-17
5734.7137    4.8746e-17
5735.7286    4.8347e-17
5736.7434    4.7391e-17
5737.7583    4.3434e-17
5738.7732    4.2117e-17
5739.7881    4.7012e-17
5740.8030    4.8808e-17
5741.8179    4.7299e-17
5742.8328    4.5885e-17
5743.8476    4.7019e-17
5744.8625    4.9111e-17
5745.8774    4.8192e-17
5746.8923    4.7796e-17
5747.9072    4.5779e-17
5748.9221    4.7954e-17
5749.9370    4.6917e-17
5750.9519    4.4502e-17
5751.9667    4.4624e-17
5752.9816    4.7149e-17
5753.9965    4.6017e-17
5755.0114    4.7574e-17
5756.0263    4.7070e-17
5757.0412    4.6740e-17
5758.0561    4.7731e-17
5759.0709    4.5685e-17
5760.0858    4.7096e-17
5761.1007    4.7737e-17
5762.1156    4.5074e-17
5763.1305    4.8005e-17
5764.1454    4.7843e-17
5765.1603    4.7277e-17
5766.1752    4.8887e-17
5767.1900    5.2566e-17
5768.2049    5.1524e-17
5769.2198    4.9953e-17
5770.2347    5.0693e-17
5771.2496    4.6921e-17
5772.2645    5.3166e-17
5773.2794    5.1443e-17
5774.2942    5.2518e-17
5775.3091    4.8459e-17
5776.3240    4.9800e-17
5777.3389    4.9847e-17
5778.3538    5.1497e-17
5779.3687    4.5814e-17
5780.3836    5.0587e-17
5781.3985    4.5951e-17
5782.4133    4.4002e-17
5783.4282    5.2865e-17
5784.4431    5.0267e-17
5785.4580    5.1084e-17
5786.4729    5.1388e-17
5787.4878    5.3892e-17
5788.5027    4.9123e-17
5789.5175    4.7728e-17
5790.5324    4.5297e-17
5791.5473    4.8037e-17
5792.5622    4.7217e-17
5793.5771    4.8474e-17
5794.5920    4.9735e-17
5795.6069    4.6516e-17
5796.6218    4.7281e-17
5797.6366    4.8308e-17
5798.6515    5.1211e-17
5799.6664    4.9808e-17
5800.6813    4.6212e-17
5801.6962    4.5638e-17
5802.7111    4.8113e-17
5803.7260    5.1811e-17
5804.7408    4.7088e-17
5805.7557    5.2128e-17
5806.7706    4.8239e-17
5807.7855    4.6819e-17
5808.8004    4.9132e-17
5809.8153    5.2069e-17
5810.8302    4.8948e-17
5811.8450    4.8133e-17
5812.8599    4.8616e-17
5813.8748    4.9892e-17
5814.8897    5.0849e-17
5815.9046    5.3643e-17
5816.9195    4.7390e-17
5817.9344    4.7027e-17
5818.9493    5.1413e-17
5819.9641    5.0828e-17
5820.9790    5.0192e-17
5821.9939    5.2002e-17
5823.0088    5.2837e-17
5824.0237    5.0945e-17
5825.0386    5.0163e-17
5826.0535    5.1478e-17
5827.0683    5.0520e-17
5828.0832    5.0916e-17
5829.0981    5.1230e-17
5830.1130    4.9365e-17
5831.1279    4.8730e-17
5832.1428    4.7619e-17
5833.1577    4.7420e-17
5834.1726    4.6413e-17
5835.1874    4.7256e-17
5836.2023    4.8190e-17
5837.2172    4.9272e-17
5838.2321    4.7728e-17
5839.2470    4.5453e-17
5840.2619    4.5540e-17
5841.2768    4.7426e-17
5842.2916    4.5899e-17
5843.3065    4.6625e-17
5844.3214    4.7984e-17
5845.3363    4.6435e-17
5846.3512    4.7992e-17
5847.3661    4.7478e-17
5848.3810    4.9696e-17
5849.3959    4.9100e-17
5850.4107    4.7348e-17
5851.4256    5.1135e-17
5852.4405    4.9070e-17
5853.4554    5.0177e-17
5854.4703    5.0006e-17
5855.4852    4.8088e-17
5856.5001    4.6687e-17
5857.5149    4.5924e-17
5858.5298    4.7897e-17
5859.5447    5.0162e-17
5860.5596    4.4634e-17
5861.5745    4.5251e-17
5862.5894    4.8161e-17
5863.6043    5.0898e-17
5864.6192    4.8223e-17
5865.6340    4.8544e-17
5866.6489    4.6920e-17
5867.6638    5.4257e-17
5868.6787    5.1564e-17
5869.6936    5.1210e-17
5870.7085    4.8779e-17
5871.7234    5.0423e-17
5872.7382    4.7860e-17
5873.7531    4.9500e-17
5874.7680    5.0330e-17
5875.7829    4.8438e-17
5876.7978    4.5718e-17
5877.8127    5.2191e-17
5878.8276    5.0613e-17
5879.8425    4.7780e-17
5880.8573    4.7096e-17
5881.8722    4.6489e-17
5882.8871    4.9378e-17
5883.9020    4.9132e-17
5884.9169    4.9601e-17
5885.9318    4.6636e-17
5886.9467    4.5118e-17
5887.9615    5.1686e-17
5888.9764    4.6877e-17
5889.9913    4.8720e-17
5891.0062    4.9034e-17
5892.0211    4.9103e-17
5893.0360    4.3808e-17
5894.0509    4.7213e-17
5895.0658    4.6871e-17
5896.0806    4.6133e-17
5897.0955    4.7587e-17
5898.1104    4.7789e-17
5899.1253    4.8526e-17
5900.1402    5.0359e-17
5901.1551    4.9939e-17
5902.1700    4.7771e-17
5903.1848    4.8765e-17
5904.1997    4.9083e-17
5905.2146    4.7247e-17
5906.2295    4.7843e-17
5907.2444    5.1051e-17
5908.2593    5.0811e-17
5909.2742    4.9306e-17
5910.2890    4.6733e-17
5911.3039    4.5540e-17
5912.3188    4.8909e-17
5913.3337    4.9308e-17
5914.3486    4.6925e-17
5915.3635    4.7373e-17
5916.3784    4.8435e-17
5917.3933    4.9736e-17
5918.4081    5.1616e-17
5919.4230    5.1450e-17
5920.4379    5.0906e-17
5921.4528    4.9288e-17
5922.4677    4.8006e-17
5923.4826    4.7257e-17
5924.4975    4.9178e-17
5925.5123    4.9119e-17
5926.5272    5.0561e-17
5927.5421    5.1630e-17
5928.5570    5.0123e-17
5929.5719    4.8845e-17
5930.5868    4.6628e-17
5931.6017    4.6685e-17
5932.6166    5.0459e-17
5933.6314    4.9254e-17
5934.6463    4.8041e-17
5935.6612    4.5872e-17
5936.6761    4.8801e-17
5937.6910    4.9618e-17
5938.7059    5.1245e-17
5939.7208    5.0960e-17
5940.7356    4.8481e-17
5941.7505    4.9241e-17
5942.7654    4.8809e-17
5943.7803    4.9137e-17
5944.7952    4.6119e-17
5945.8101    4.9055e-17
5946.8250    4.7003e-17
5947.8399    4.9628e-17
5948.8547    4.8328e-17
5949.8696    4.7724e-17
5950.8845    4.8272e-17
5951.8994    4.8393e-17
5952.9143    4.4939e-17
5953.9292    4.7440e-17
5954.9441    4.7170e-17
5955.9589    4.9660e-17
5956.9738    4.6972e-17
5957.9887    4.6452e-17
5959.0036    4.7769e-17
5960.0185    4.6363e-17
5961.0334    4.6857e-17
5962.0483    4.4690e-17
5963.0632    4.6781e-17
5964.0780    4.6833e-17
5965.0929    4.5673e-17
5966.1078    4.5824e-17
5967.1227    4.8429e-17
5968.1376    4.9197e-17
5969.1525    4.9952e-17
5970.1674    4.7494e-17
5971.1822    4.5092e-17
5972.1971    4.8469e-17
5973.2120    4.9271e-17
5974.2269    4.9162e-17
5975.2418    4.9636e-17
5976.2567    4.8364e-17
5977.2716    4.5515e-17
5978.2865    4.6451e-17
5979.3013    4.8832e-17
5980.3162    4.9385e-17
5981.3311    4.8283e-17
5982.3460    4.8486e-17
5983.3609    4.7718e-17
5984.3758    4.8341e-17
5985.3907    4.6921e-17
5986.4055    4.4422e-17
5987.4204    4.4654e-17
5988.4353    4.5261e-17
5989.4502    4.6789e-17
5990.4651    4.8792e-17
5991.4800    4.8382e-17
5992.4949    4.8011e-17
5993.5098    4.9010e-17
5994.5246    4.8604e-17
5995.5395    4.6786e-17
5996.5544    4.4514e-17
5997.5693    4.4630e-17
5998.5842    4.7415e-17
5999.5991    4.5236e-17
6000.6140    4.6009e-17
6001.6288    4.7922e-17
6002.6437    4.7787e-17
6003.6586    4.8076e-17
6004.6735    4.5602e-17
6005.6884    4.4708e-17
6006.7033    4.6964e-17
6007.7182    4.8776e-17
6008.7331    4.7962e-17
6009.7479    4.4159e-17
6010.7628    4.6372e-17
6011.7777    4.8520e-17
6012.7926    4.7195e-17
6013.8075    4.5814e-17
6014.8224    4.3978e-17
6015.8373    4.3622e-17
6016.8521    4.6160e-17
6017.8670    4.7848e-17
6018.8819    4.6134e-17
6019.8968    4.6616e-17
6020.9117    4.5324e-17
6021.9266    4.3193e-17
6022.9415    4.3097e-17
6023.9563    4.3836e-17
6024.9712    4.5026e-17
6025.9861    4.6150e-17
6027.0010    4.4716e-17
6028.0159    4.4119e-17
6029.0308    4.3361e-17
6030.0457    4.3507e-17
6031.0606    4.2940e-17
6032.0754    4.3939e-17
6033.0903    4.6814e-17
6034.1052    4.5977e-17
6035.1201    4.5209e-17
6036.1350    4.3739e-17
6037.1499    4.3281e-17
6038.1648    4.5925e-17
6039.1796    4.7181e-17
6040.1945    4.5892e-17
6041.2094    4.7385e-17
6042.2243    4.9388e-17
6043.2392    4.8124e-17
6044.2541    4.6783e-17
6045.2690    4.5235e-17
6046.2839    4.5603e-17
6047.2987    4.4619e-17
6048.3136    4.4136e-17
6049.3285    4.4321e-17
6050.3434    4.4795e-17
6051.3583    4.4786e-17
6052.3732    4.5885e-17
6053.3881    4.6306e-17
6054.4029    4.5131e-17
6055.4178    4.5469e-17
6056.4327    4.6101e-17
6057.4476    4.6950e-17
6058.4625    4.6599e-17
6059.4774    4.4665e-17
6060.4923    4.3915e-17
6061.5072    4.4971e-17
6062.5220    4.6093e-17
6063.5369    4.7156e-17
6064.5518    4.7617e-17
6065.5667    4.6191e-17
6066.5816    4.4646e-17
6067.5965    4.4302e-17
6068.6114    4.4439e-17
6069.6262    4.6122e-17
6070.6411    4.6580e-17
6071.6560    4.5889e-17
6072.6709    4.5863e-17
6073.6858    4.4606e-17
6074.7007    4.2842e-17
6075.7156    4.6133e-17
6076.7305    4.5846e-17
6077.7453    4.4827e-17
6078.7602    4.7326e-17
6079.7751    4.7656e-17
6080.7900    4.5104e-17
6081.8049    4.4086e-17
6082.8198    4.3285e-17
6083.8347    4.5191e-17
6084.8495    4.3386e-17
6085.8644    4.2366e-17
6086.8793    4.3729e-17
6087.8942    4.4210e-17
6088.9091    4.5336e-17
6089.9240    4.5852e-17
6090.9389    4.6686e-17
6091.9538    4.6502e-17
6092.9686    4.7618e-17
6093.9835    4.7426e-17
6094.9984    4.6379e-17
6096.0133    4.3321e-17
6097.0282    4.3601e-17
6098.0431    4.1137e-17
6099.0580    4.4579e-17
6100.0728    4.5702e-17
6101.0877    4.5172e-17
6102.1026    4.4930e-17
6103.1175    4.6682e-17
6104.1324    4.6812e-17
6105.1473    4.1760e-17
6106.1622    4.0572e-17
6107.1771    4.3862e-17
6108.1919    4.4330e-17
6109.2068    4.5410e-17
6110.2217    4.5807e-17
6111.2366    4.3972e-17
6112.2515    4.4414e-17
6113.2664    4.5375e-17
6114.2813    4.5820e-17
6115.2961    4.4997e-17
6116.3110    4.2150e-17
6117.3259    4.3689e-17
6118.3408    4.7043e-17
6119.3557    4.5889e-17
6120.3706    4.5171e-17
6121.3855    4.5728e-17
6122.4003    4.4753e-17
6123.4152    4.4062e-17
6124.4301    4.3725e-17
6125.4450    4.4321e-17
6126.4599    4.2186e-17
6127.4748    4.2622e-17
6128.4897    4.4158e-17
6129.5046    4.4166e-17
6130.5194    4.4072e-17
6131.5343    4.3443e-17
6132.5492    4.4188e-17
6133.5641    4.3602e-17
6134.5790    4.2902e-17
6135.5939    4.4496e-17
6136.6088    4.5859e-17
6137.6236    4.5215e-17
6138.6385    4.4790e-17
6139.6534    4.5042e-17
6140.6683    4.5224e-17
6141.6832    4.4269e-17
6142.6981    4.5368e-17
6143.7130    4.4699e-17
6144.7279    4.4371e-17
6145.7427    4.5173e-17
6146.7576    4.4711e-17
6147.7725    4.5733e-17
6148.7874    4.5831e-17
6149.8023    4.2553e-17
6150.8172    4.1788e-17
6151.8321    4.4160e-17
6152.8469    4.4336e-17
6153.8618    4.4525e-17
6154.8767    4.2623e-17
6155.8916    4.2000e-17
6156.9065    4.2850e-17
6157.9214    4.3701e-17
6158.9363    4.1195e-17
6159.9512    4.2763e-17
6160.9660    4.4529e-17
6161.9809    4.3974e-17
6162.9958    4.5534e-17
6164.0107    4.2453e-17
6165.0256    4.4931e-17
6166.0405    4.5388e-17
6167.0554    4.5673e-17
6168.0702    4.4303e-17
6169.0851    4.1344e-17
6170.1000    4.2406e-17
6171.1149    4.3316e-17
6172.1298    4.5549e-17
6173.1447    4.2081e-17
6174.1596    4.3612e-17
6175.1745    4.5996e-17
6176.1893    4.4545e-17
6177.2042    4.2403e-17
6178.2191    4.1180e-17
6179.2340    4.2832e-17
6180.2489    4.3443e-17
6181.2638    4.4408e-17
6182.2787    4.5830e-17
6183.2935    4.5609e-17
6184.3084    4.5423e-17
6185.3233    4.4439e-17
6186.3382    4.3146e-17
6187.3531    4.5230e-17
6188.3680    4.7523e-17
6189.3829    4.6012e-17
6190.3978    4.4175e-17
6191.4126    4.3392e-17
6192.4275    4.3731e-17
6193.4424    4.4361e-17
6194.4573    4.3603e-17
6195.4722    4.3702e-17
6196.4871    4.4489e-17
6197.5020    4.5548e-17
6198.5168    4.4711e-17
6199.5317    4.2489e-17
6200.5466    4.2534e-17
6201.5615    4.3531e-17
6202.5764    4.2372e-17
6203.5913    4.3182e-17
6204.6062    4.4789e-17
6205.6211    4.6031e-17
6206.6359    4.3737e-17
6207.6508    4.2245e-17
6208.6657    4.3223e-17
6209.6806    4.3769e-17
6210.6955    4.3468e-17
6211.7104    4.3318e-17
6212.7253    4.1989e-17
6213.7401    4.1858e-17
6214.7550    4.2969e-17
6215.7699    4.5282e-17
6216.7848    4.4385e-17
6217.7997    4.3840e-17
6218.8146    4.0304e-17
6219.8295    4.1476e-17
6220.8443    4.2463e-17
6221.8592    4.3958e-17
6222.8741    4.4709e-17
6223.8890    4.3205e-17
6224.9039    4.3975e-17
6225.9188    4.2303e-17
6226.9337    4.0540e-17
6227.9486    4.2269e-17
6228.9634    4.3372e-17
6229.9783    4.2436e-17
6230.9932    4.2669e-17
6232.0081    4.2640e-17
6233.0230    4.1897e-17
6234.0379    4.2968e-17
6235.0528    4.3238e-17
6236.0676    4.0894e-17
6237.0825    4.0676e-17
6238.0974    4.3861e-17
6239.1123    4.4481e-17
6240.1272    4.2009e-17
6241.1421    4.2536e-17
6242.1570    4.1018e-17
6243.1719    4.0614e-17
6244.1867    4.1500e-17
6245.2016    4.2326e-17
6246.2165    4.2142e-17
6247.2314    4.2985e-17
6248.2463    4.2596e-17
6249.2612    4.4017e-17
6250.2761    4.4371e-17
6251.2909    4.2122e-17
6252.3058    4.2418e-17
6253.3207    4.3649e-17
6254.3356    4.5418e-17
6255.3505    4.5226e-17
6256.3654    4.1977e-17
6257.3803    4.1982e-17
6258.3952    4.2598e-17
6259.4100    4.2160e-17
6260.4249    4.2640e-17
6261.4398    4.3803e-17
6262.4547    4.2914e-17
6263.4696    4.3037e-17
6264.4845    4.2188e-17
6265.4994    4.2050e-17
6266.5142    4.2153e-17
6267.5291    4.0581e-17
6268.5440    4.1685e-17
6269.5589    4.2190e-17
6270.5738    4.2037e-17
6271.5887    4.2111e-17
6272.6036    4.2288e-17
6273.6185    4.2010e-17
6274.6333    4.0518e-17
6275.6482    4.0031e-17
6276.6631    4.0246e-17
6277.6780    3.8148e-17
6278.6929    3.9294e-17
6279.7078    4.0942e-17
6280.7227    4.0464e-17
6281.7375    4.0637e-17
6282.7524    4.3558e-17
6283.7673    3.9842e-17
6284.7822    4.0492e-17
6285.7971    4.3937e-17
6286.8120    4.4425e-17
6287.8269    4.1091e-17
6288.8418    4.2153e-17
6289.8566    4.2224e-17
6290.8715    3.9928e-17
6291.8864    4.1650e-17
6292.9013    4.2472e-17
6293.9162    3.9218e-17
6294.9311    3.9624e-17
6295.9460    4.1270e-17
6296.9608    3.9264e-17
6297.9757    3.8538e-17
6298.9906    4.1325e-17
6300.0055    4.3825e-17
6301.0204    3.8632e-17
6302.0353    4.5083e-17
6303.0502    4.2311e-17
6304.0651    4.4419e-17
6305.0799    4.0500e-17
6306.0948    4.1873e-17
6307.1097    4.1877e-17
6308.1246    4.1027e-17
6309.1395    4.1365e-17
6310.1544    4.2360e-17
6311.1693    4.3684e-17
6312.1841    4.3115e-17
6313.1990    4.0864e-17
6314.2139    3.9448e-17
6315.2288    3.9832e-17
6316.2437    3.9383e-17
6317.2586    3.8590e-17
6318.2735    4.0800e-17
6319.2883    4.2035e-17
6320.3032    4.1723e-17
6321.3181    4.1739e-17
6322.3330    4.1445e-17
6323.3479    4.1641e-17
6324.3628    4.2033e-17
6325.3777    4.1761e-17
6326.3926    4.1591e-17
6327.4074    3.9824e-17
6328.4223    4.1294e-17
6329.4372    3.9591e-17
6330.4521    4.0842e-17
6331.4670    4.2546e-17
6332.4819    4.2914e-17
6333.4968    4.1584e-17
6334.5116    4.1664e-17
6335.5265    4.2069e-17
6336.5414    4.1688e-17
6337.5563    4.2221e-17
6338.5712    4.0867e-17
6339.5861    3.9469e-17
6340.6010    4.0877e-17
6341.6159    4.2057e-17
6342.6307    4.0534e-17
6343.6456    4.2367e-17
6344.6605    4.2743e-17
6345.6754    4.2107e-17
6346.6903    4.0628e-17
6347.7052    4.2659e-17
6348.7201    3.9309e-17
6349.7349    4.1685e-17
6350.7498    4.2145e-17
6351.7647    4.3037e-17
6352.7796    4.4453e-17
6353.7945    4.2528e-17
6354.8094    4.1016e-17
6355.8243    4.1678e-17
6356.8392    4.1525e-17
6357.8540    4.2830e-17
6358.8689    4.1469e-17
6359.8838    4.0139e-17
6360.8987    4.0780e-17
6361.9136    4.1031e-17
6362.9285    4.2156e-17
6363.9434    4.2010e-17
6364.9582    4.3278e-17
6365.9731    4.3193e-17
6366.9880    4.2315e-17
6368.0029    4.2288e-17
6369.0178    4.1810e-17
6370.0327    4.1486e-17
6371.0476    3.9964e-17
6372.0625    4.0073e-17
6373.0773    4.1279e-17
6374.0922    4.0538e-17
6375.1071    3.9266e-17
6376.1220    4.1739e-17
6377.1369    4.2310e-17
6378.1518    4.0006e-17
6379.1667    4.1079e-17
6380.1815    4.1689e-17
6381.1964    4.1731e-17
6382.2113    4.0167e-17
6383.2262    4.2443e-17
6384.2411    4.2845e-17
6385.2560    4.1037e-17
6386.2709    4.1018e-17
6387.2858    4.0390e-17
6388.3006    4.0513e-17
6389.3155    4.2744e-17
6390.3304    4.2474e-17
6391.3453    4.0517e-17
6392.3602    4.0266e-17
6393.3751    3.9739e-17
6394.3900    3.8361e-17
6395.4048    3.9905e-17
6396.4197    3.7917e-17
6397.4346    3.8087e-17
6398.4495    3.9505e-17
6399.4644    3.9310e-17
6400.4793    4.2066e-17
6401.4942    4.2293e-17
6402.5091    4.1694e-17
6403.5239    4.2268e-17
6404.5388    4.0440e-17
6405.5537    3.9439e-17
6406.5686    3.8559e-17
6407.5835    4.1980e-17
6408.5984    4.1636e-17
6409.6133    4.0791e-17
6410.6281    4.1659e-17
6411.6430    4.0644e-17
6412.6579    3.7745e-17
6413.6728    4.0097e-17
6414.6877    4.2978e-17
6415.7026    4.1569e-17
6416.7175    4.1470e-17
6417.7324    4.0409e-17
6418.7472    3.8739e-17
6419.7621    3.8843e-17
6420.7770    3.9562e-17
6421.7919    4.0297e-17
6422.8068    4.1792e-17
6423.8217    4.0176e-17
6424.8366    3.8608e-17
6425.8514    3.9106e-17
6426.8663    3.8409e-17
6427.8812    3.9360e-17
6428.8961    4.0621e-17
6429.9110    4.1642e-17
6430.9259    4.2668e-17
6431.9408    4.0419e-17
6432.9556    3.8901e-17
6433.9705    4.0088e-17
6434.9854    4.0847e-17
6436.0003    3.9510e-17
6437.0152    4.0040e-17
6438.0301    4.1027e-17
6439.0450    4.1131e-17
6440.0599    4.1034e-17
6441.0747    4.1839e-17
6442.0896    4.2226e-17
6443.1045    4.1819e-17
6444.1194    4.1582e-17
6445.1343    4.0305e-17
6446.1492    3.9618e-17
6447.1641    3.9150e-17
6448.1789    4.0984e-17
6449.1938    4.0367e-17
6450.2087    4.1509e-17
6451.2236    4.0032e-17
6452.2385    4.0627e-17
6453.2534    3.9438e-17
6454.2683    3.7364e-17
6455.2832    3.8766e-17
6456.2980    3.8483e-17
6457.3129    3.8067e-17
6458.3278    4.0524e-17
6459.3427    4.1014e-17
6460.3576    4.1070e-17
6461.3725    4.0167e-17
6462.3874    3.9796e-17
6463.4022    3.8568e-17
6464.4171    3.7763e-17
6465.4320    4.0323e-17
6466.4469    4.1216e-17
6467.4618    3.9823e-17
6468.4767    3.9176e-17
6469.4916    4.0364e-17
6470.5065    4.1133e-17
6471.5213    4.2767e-17
6472.5362    4.2815e-17
6473.5511    4.1875e-17
6474.5660    4.0470e-17
6475.5809    3.9914e-17
6476.5958    3.8809e-17
6477.6107    3.9537e-17
6478.6255    3.9838e-17
6479.6404    3.8788e-17
6480.6553    4.0436e-17
6481.6702    4.0819e-17
6482.6851    4.0634e-17
6483.7000    4.0789e-17
6484.7149    4.0714e-17
6485.7298    4.0291e-17
6486.7446    3.8455e-17
6487.7595    4.0439e-17
6488.7744    3.9869e-17
6489.7893    4.1437e-17
6490.8042    3.9689e-17
6491.8191    3.8948e-17
6492.8340    3.9187e-17
6493.8488    4.1157e-17
6494.8637    3.8614e-17
6495.8786    3.6050e-17
6496.8935    3.8424e-17
6497.9084    3.8268e-17
6498.9233    4.0460e-17
6499.9382    4.1116e-17
6500.9531    4.0793e-17
6501.9679    3.9053e-17
6502.9828    3.8331e-17
6503.9977    3.8511e-17
6505.0126    3.9962e-17
6506.0275    3.9419e-17
6507.0424    3.9244e-17
6508.0573    3.9835e-17
6509.0721    3.8592e-17
6510.0870    3.9138e-17
6511.1019    3.8304e-17
6512.1168    3.7843e-17
6513.1317    4.0054e-17
6514.1466    3.9842e-17
6515.1615    3.8675e-17
6516.1764    3.9336e-17
6517.1912    4.0243e-17
6518.2061    4.0437e-17
6519.2210    4.0136e-17
6520.2359    3.9082e-17
6521.2508    3.9304e-17
6522.2657    4.0299e-17
6523.2806    3.9955e-17
6524.2954    4.0892e-17
6525.3103    4.1070e-17
6526.3252    4.0605e-17
6527.3401    3.9757e-17
6528.3550    3.8976e-17
6529.3699    3.9732e-17
6530.3848    3.9059e-17
6531.3996    3.9006e-17
6532.4145    3.9536e-17
6533.4294    4.1202e-17
6534.4443    4.1762e-17
6535.4592    3.9989e-17
6536.4741    3.9849e-17
6537.4890    4.0446e-17
6538.5039    3.9372e-17
6539.5187    3.9257e-17
6540.5336    3.7572e-17
6541.5485    3.8674e-17
6542.5634    3.9029e-17
6543.5783    3.9933e-17
6544.5932    3.9521e-17
6545.6081    3.6328e-17
6546.6229    3.7976e-17
6547.6378    3.9254e-17
6548.6527    3.9826e-17
6549.6676    4.0356e-17
6550.6825    3.6028e-17
6551.6974    4.0608e-17
6552.7123    3.9137e-17
6553.7272    3.8801e-17
6554.7420    3.8401e-17
6555.7569    3.8787e-17
6556.7718    4.0122e-17
6557.7867    4.0283e-17
6558.8016    3.8464e-17
6559.8165    3.8772e-17
6560.8314    3.7443e-17
6561.8462    3.8234e-17
6562.8611    3.8717e-17
6563.8760    4.0316e-17
6564.8909    3.9103e-17
6565.9058    3.9318e-17
6566.9207    4.0915e-17
6567.9356    4.2354e-17
6568.9505    4.0433e-17
6569.9653    3.9434e-17
6570.9802    4.0387e-17
6571.9951    4.0385e-17
6573.0100    4.0115e-17
6574.0249    3.8370e-17
6575.0398    3.8696e-17
6576.0547    4.0409e-17
6577.0695    4.1262e-17
6578.0844    4.1767e-17
6579.0993    4.1896e-17
6580.1142    4.0530e-17
6581.1291    4.1246e-17
6582.1440    4.0771e-17
6583.1589    3.9407e-17
6584.1738    3.8608e-17
6585.1886    4.0325e-17
6586.2035    4.0918e-17
6587.2184    3.9762e-17
6588.2333    3.9463e-17
6589.2482    4.0155e-17
6590.2631    4.0055e-17
6591.2780    3.9298e-17
6592.2928    4.0947e-17
6593.3077    3.9167e-17
6594.3226    3.9927e-17
6595.3375    4.1091e-17
6596.3524    3.8786e-17
6597.3673    3.8825e-17
6598.3822    4.2938e-17
6599.3971    4.2534e-17
6600.4119    3.9292e-17
6601.4268    3.8811e-17
6602.4417    4.0753e-17
6603.4566    4.0125e-17
6604.4715    4.1086e-17
6605.4864    4.0443e-17
6606.5013    4.0977e-17
6607.5161    3.7897e-17
6608.5310    3.9783e-17
6609.5459    3.9405e-17
6610.5608    3.9416e-17
6611.5757    3.9611e-17
6612.5906    3.9659e-17
6613.6055    3.9307e-17
6614.6204    4.0243e-17
6615.6352    3.9915e-17
6616.6501    3.9603e-17
6617.6650    3.9160e-17
6618.6799    4.0578e-17
6619.6948    4.1494e-17
6620.7097    4.0561e-17
6621.7246    3.9787e-17
6622.7394    3.9000e-17
6623.7543    3.8366e-17
6624.7692    3.8704e-17
6625.7841    3.9441e-17
6626.7990    3.9848e-17
6627.8139    4.0658e-17
6628.8288    4.1120e-17
6629.8436    4.0673e-17
6630.8585    4.0330e-17
6631.8734    3.9751e-17
6632.8883    4.1500e-17
6633.9032    4.2037e-17
6634.9181    3.9399e-17
6635.9330    3.9685e-17
6636.9479    4.0518e-17
6637.9627    4.0105e-17
6638.9776    4.0330e-17
6639.9925    3.9523e-17
6641.0074    4.0624e-17
6642.0223    3.8565e-17
6643.0372    3.8160e-17
6644.0521    3.8534e-17
6645.0669    3.8039e-17
6646.0818    3.8270e-17
6647.0967    3.7398e-17
6648.1116    3.9072e-17
6649.1265    3.8316e-17
6650.1414    3.8293e-17
6651.1563    4.0666e-17
6652.1712    4.1379e-17
6653.1860    4.0328e-17
6654.2009    3.9791e-17
6655.2158    4.0103e-17
6656.2307    4.0599e-17
6657.2456    3.9597e-17
6658.2605    3.9349e-17
6659.2754    3.9722e-17
6660.2902    4.0877e-17
6661.3051    4.0023e-17
6662.3200    3.9140e-17
6663.3349    3.9963e-17
6664.3498    3.8693e-17
6665.3647    3.8296e-17
6666.3796    4.0380e-17
6667.3945    4.1177e-17
6668.4093    4.0594e-17
6669.4242    3.9946e-17
6670.4391    3.9208e-17
6671.4540    3.8774e-17
6672.4689    3.9609e-17
6673.4838    3.9985e-17
6674.4987    3.9888e-17
6675.5135    4.0580e-17
6676.5284    4.1078e-17
6677.5433    4.0977e-17
6678.5582    4.2303e-17
6679.5731    4.1392e-17
6680.5880    4.0007e-17
6681.6029    3.8764e-17
6682.6178    3.8463e-17
6683.6326    4.1566e-17
6684.6475    4.1747e-17
6685.6624    4.1234e-17
6686.6773    3.8213e-17
6687.6922    4.0464e-17
6688.7071    3.9813e-17
6689.7220    3.8713e-17
6690.7368    4.0032e-17
6691.7517    4.3143e-17
6692.7666    4.3478e-17
6693.7815    4.3084e-17
6694.7964    4.6243e-17
6695.8113    4.4308e-17
6696.8262    4.3490e-17
6697.8411    4.3216e-17
6698.8559    4.2665e-17
6699.8708    3.8577e-17
6700.8857    4.1393e-17
6701.9006    4.1361e-17
6702.9155    4.0850e-17
6703.9304    3.8807e-17
6704.9453    3.9781e-17
6705.9601    4.0318e-17
6706.9750    4.6898e-17
6707.9899    5.8406e-17
6709.0048    6.4536e-17
6710.0197    6.5649e-17
6711.0346    6.4352e-17
6712.0495    5.8677e-17
6713.0644    4.8792e-17
6714.0792    4.1449e-17
6715.0941    3.9015e-17
6716.1090    3.9239e-17
6717.1239    3.9803e-17
6718.1388    3.9445e-17
6719.1537    3.8919e-17
6720.1686    3.8499e-17
6721.1834    3.7473e-17
6722.1983    3.7124e-17
6723.2132    3.8916e-17
6724.2281    4.0715e-17
6725.2430    3.9416e-17
6726.2579    3.9864e-17
6727.2728    4.1093e-17
6728.2876    4.3853e-17
6729.3025    5.1032e-17
6730.3174    5.4542e-17
6731.3323    5.3447e-17
6732.3472    5.4331e-17
6733.3621    4.9847e-17
6734.3770    4.3418e-17
6735.3919    4.0646e-17
6736.4067    4.1920e-17
6737.4216    3.9981e-17
6738.4365    3.8733e-17
6739.4514    3.9300e-17
6740.4663    3.9763e-17
6741.4812    3.9940e-17
6742.4961    4.0558e-17
6743.5109    3.9800e-17
6744.5258    4.0404e-17
6745.5407    4.0415e-17
6746.5556    3.8578e-17
6747.5705    3.8778e-17
6748.5854    3.7854e-17
6749.6003    3.8685e-17
6750.6152    3.7768e-17
6751.6300    3.8228e-17
6752.6449    3.8552e-17
6753.6598    3.7362e-17
6754.6747    3.8006e-17
6755.6896    3.9126e-17
6756.7045    4.0736e-17
6757.7194    4.1122e-17
6758.7342    3.9423e-17
6759.7491    3.8940e-17
6760.7640    3.8687e-17
6761.7789    3.7416e-17
6762.7938    3.8896e-17
6763.8087    3.9670e-17
6764.8236    3.8189e-17
6765.8385    3.7866e-17
6766.8533    3.8800e-17
6767.8682    3.8230e-17
6768.8831    3.8837e-17
6769.8980    4.0101e-17
6770.9129    3.7223e-17
6771.9278    3.5883e-17
6772.9427    3.7393e-17
6773.9575    3.7557e-17
6774.9724    3.5989e-17
6775.9873    3.8522e-17
6777.0022    4.0266e-17
6778.0171    3.8598e-17
6779.0320    3.8441e-17
6780.0469    3.8350e-17
6781.0618    3.7878e-17
6782.0766    3.9817e-17
6783.0915    3.7552e-17
6784.1064    3.9154e-17
6785.1213    3.7566e-17
6786.1362    3.7973e-17
6787.1511    3.8157e-17
6788.1660    3.8457e-17
6789.1808    3.9073e-17
6790.1957    3.7790e-17
6791.2106    3.8753e-17
6792.2255    3.8770e-17
6793.2404    3.8411e-17
6794.2553    3.9137e-17
6795.2702    3.9651e-17
6796.2851    3.8291e-17
6797.2999    3.8303e-17
6798.3148    3.8696e-17
6799.3297    3.8889e-17
6800.3446    3.8270e-17
6801.3595    3.8075e-17
6802.3744    3.7694e-17
6803.3893    3.7178e-17
6804.4041    3.7202e-17
6805.4190    3.7730e-17
6806.4339    3.8164e-17
6807.4488    3.7445e-17
6808.4637    3.7411e-17
6809.4786    3.8111e-17
6810.4935    3.6251e-17
6811.5084    3.6102e-17
6812.5232    3.6273e-17
6813.5381    3.7899e-17
6814.5530    3.9171e-17
6815.5679    3.9041e-17
6816.5828    3.8252e-17
6817.5977    3.6498e-17
6818.6126    3.7779e-17
6819.6274    3.9368e-17
6820.6423    3.8722e-17
6821.6572    3.8459e-17
6822.6721    3.8457e-17
6823.6870    3.8920e-17
6824.7019    3.8550e-17
6825.7168    3.7174e-17
6826.7316    3.6380e-17
6827.7465    3.6191e-17
6828.7614    3.8607e-17
6829.7763    4.2232e-17
6830.7912    4.0873e-17
6831.8061    3.6945e-17
6832.8210    3.5175e-17
6833.8359    3.4805e-17
6834.8507    3.7646e-17
6835.8656    4.0831e-17
6836.8805    4.1384e-17
6837.8954    4.0435e-17
6838.9103    3.8372e-17
6839.9252    3.7415e-17
6840.9401    3.9343e-17
6841.9549    3.9673e-17
6842.9698    4.0355e-17
6843.9847    4.2549e-17
6844.9996    4.3588e-17
6846.0145    4.2040e-17
6847.0294    3.8721e-17
6848.0443    3.9593e-17
6849.0592    4.0037e-17
6850.0740    4.0538e-17
6851.0889    4.0099e-17
6852.1038    3.6834e-17
6853.1187    3.7218e-17
6854.1336    3.7882e-17
6855.1485    3.9722e-17
6856.1634    4.1399e-17
6857.1782    4.0269e-17
6858.1931    4.0754e-17
6859.2080    3.8906e-17
6860.2229    3.5872e-17
6861.2378    3.6282e-17
6862.2527    3.9131e-17
