# Spectrum combined from four exposures, the header of the first one is shown here
# SIMPLE  =                    T / Fits standard                                  
# BITPIX  =                   16 / Bits per pixel                                 
# NAXIS   =                    0 / Number of axes                                 
# EXTEND  =                    T / File may contain extensions                    
# ORIGIN  = 'NOAO-IRAF FITS Image Kernel July 2003' / FITS file originator        
# DATE    = '2020-09-01T07:46:56' / Date FITS file was generated                  
# IRAF-TLM= '2020-09-03T12:54:57' / Time of last modification                     
# COMMENT   FITS (Flexible Image Transport System) format is defined in 'Astronomy
# COMMENT   and Astrophysics', volume 376, page 359; bibcode: 2001A&A...376..359H 
# INSTRUME= 'GMOS-N  '           / Instrument used to acquire data                
# SEQEXVER= '20200825-60abaa92'  / Seqexec version                                
# OBJECT  = 'ZTF20abwzqzo'       / Object Name                                    
# OBSTYPE = 'OBJECT  '           / Observation type                               
# OBSCLASS= 'science '           / Observe class                                  
# GEMPRGID= 'GN-2020B-Q-901'     / Gemini programme ID                            
# OBSID   = 'GN-2020B-Q-901-49'  / Observation ID / Data label                    
# DATALAB = 'GN-2020B-Q-901-49-002' / DHS data label                              
# OBSERVER= 'B. Cooper'          / Observer                                       
# OBSERVAT= 'Gemini-North'       / Name of telescope (Gemini-North|Gemini-South)  
# TELESCOP= 'Gemini-North'       / Gemini-North                                   
# PARALLAX=                   0. / Parallax of Target                             
# RADVEL  =                   0. / Heliocentric Radial Velocity                   
# EPOCH   =                2000. / Epoch for Target coordinates                   
# EQUINOX =                2000. / Equinox of coordinate system                   
# TRKEQUIN=                2000. / Tracking equinox                               
# SSA     = 'J. Berghuis'        / SSA                                            
# RA      =     41.5137916666667 / Right Ascension                                
# DEC     =     3.32994444444444 / Declination of Target                          
# ELEVATIO=     59.1515305555556 / Current Elevation                              
# AZIMUTH =     118.751838888889 / Current Azimuth                                
# CRPA    =     4.58115293616703 / Current Cass Rotator Position Angle            
# HA      = '-01:47:12.13'       / Telescope hour angle                           
# LT      = '03:00:51.2'         / Local time at start of observation             
# TRKFRAME= 'FK5     '           / Tracking co-ordinate                           
# DECTRACK=                   0. / Differential tracking rate Dec                 
# TRKEPOCH=     59087.5288115881 / Differential tracking reference epoch          
# RATRACK =                   0. / Differential tracking rate RA                  
# FRAME   = 'FK5     '           / Target coordinate system                       
# PMDEC   =                   0. / Proper Motion in Declination                   
# PMRA    =                   0. / Proper Motion in RA                            
# WAVELENG=                5200. / Effective Target Wavelength                    
# RAWIQ   = '85-percentile'      / Raw Image Quality                              
# RAWCC   = '50-percentile'      / Raw Cloud Cover                                
# RAWWV   = 'UNKNOWN '           / Raw Water Vapour/Transparency                  
# RAWBG   = 'UNKNOWN '           / Raw Background                                 
# RAWPIREQ= 'YES     '                                                            
# RAWGEMQA= 'USABLE  '                                                            
# CGUIDMOD= 'Basic   '           / Carousel Mode                                  
# UT      = '13:00:51.7'         / UT at observation start                        
# M2BAFFLE= 'VISIBLE '           / Position of M2 baffle                          
# M2CENBAF= 'CLOSED  '           / Position of M2 central hole baffle             
# ST      = '00:59:55.7'         / Sidereal time at the start of the exposure     
# XOFFSET =    0.174951739158709 / Telescope offset in x in arcsec                
# YOFFSET =    0.476411087766997 / Telescope offset in y in arcsec                
# POFFSET =    0.175799585570408 / Telescope offset in p in arcsec                
# QOFFSET =    0.476098877645456 / Telescope offset in q in arcsec                
# RAOFFSET=   -0.261948178552181 / Telescope offset in RA in arcsec               
# DECOFFSE=     0.43469390073382 / Telescope offset in DEC in arcsec              
# RATRGOFF=                   0. / Target offset in RA in arcsec                  
# DECTRGOF=                   0. / Target offset in DEC in arcsec                 
# PA      =               308.66 / Sky Position Angle at start of exposure        
# IAA     =              179.898 / Instrument Alignment Angle                     
# SFRT2   =     178.841748696984 / Science fold rotation angle (degrees)          
# SFTILT  =              44.9296 / Science fold tilt angle (degrees)              
# SFLINEAR=               -1.997 / Science fold linear position (mm)              
# AOFOLD  = 'park-pos.'          / AO Pick-Off Mirror Position                    
# PWFS1_ST= 'parked  '           / PWFS1 probe state (frozen,guiding,parked)      
# PWFS2_ST= 'parked  '           / PWFS2 probe state (frozen,guiding,parked)      
# OIWFS_ST= 'guiding '           / OIWFS probe state (frozen,guiding,parked)      
# AOWFS_ST= 'parked  '           / AOWFS probe state (frozen,guiding,parked)      
# SCIBAND =                    1 / Science Ranking Band                           
# REQIQ   = 'Any     '           / Requested Image Quality                        
# REQCC   = '70-percentile'      / Requested Cloud Cover                          
# REQBG   = 'Any     '           / Requested Background                           
# REQWV   = 'Any     '           / Requested Water Vapour                         
# REQMAXAM=                   2. / Requested Maximum Airmass                      
# REQMINAM=                   1. / Requested Minimum Airmass                      
# NUMREQTW=                    1 / Number of Requested Timing Window REQTW entries
# REQTWS01= '2020-08-26T12:29:04.943' / Requested Timing Window 01 Start (UTC)    
# REQTWD01=               86400. / Requested Timing Window 01 Duration [seconds]  
# REQTWN01=                    0 / Requested Timing Window 01 Number of Repeats   
# REQTWP01=                   0. / Requested Timing Window 01 Repeat Period [secon
# OIARA   =             41.46215 / RA of OIWFS guide star                         
# OIADEC  =             3.324625 / Declination of OIWFS guide star                
# OIARV   =                   0. / OIWFS Heliocentric Radial Velocity             
# OIAWAVEL=                6500. / OIWFS Effective Target Wavelength              
# OIAEPOCH=                2000. / Epoch for OIWFS guide star coordinates         
# OIAEQUIN=                2000. / Equinox for OIWFS guide star coordinates       
# OIAFRAME= 'FK5     '           / OIWFS Target co-ordinate system                
# OIAOBJEC= '467-003673'         / Object Name for OIWFS, Chop A                  
# OIAPMDEC= -0.00260000000184945 / OIWFS Proper Motion in Declination             
# OIAPMRA = 4.00674350418113E-05 / OIWFS Proper Motion in RA                      
# OIAPARAL=                   0. / OIWFS Parallax of Target                       
# OIFREQ  =                 200. / OIWFS sampling frequency (Hz)                  
# HUMIDITY=                16.46 / The Relative Humidity (fraction, 0..101).      
# TAMBIENT=                 2.12 / The ambient temp (C).                          
# TAMBIEN2=               35.816 / The ambient temp (F).                          
# PRESSURE=     462.900501533147 / The atmospheric pressure (mm Hg).              
# PRESSUR2=               61715. / The atmospheric pressure (Pa).                 
# DEWPOINT=    -20.9994296995032 / The dew point (C).                             
# DEWPOIN2=     -5.7989734591057 / The dew point (F).                             
# WINDSPEE=            2.4950534 / The wind speed (m/s).                          
# WINDSPE2=     5.58127550107373 / The wind speed (mph).                          
# WINDDIRE=                65.61 / The wind direction (degrees).                  
# INPORT  =                    5 / Number of ISS port where GMOS was located      
# GMOSCC  = 'GMOS-N (V7-13)'     / GMOS components controller s/w                 
# TIME-OBS= '13:00:52.2'         / Time of observation                            
# PREIMAGE=                    F / MOS pre-imaging                                
# CONID   = 'ARC-III '           / Detector controller ID                         
# DETECTOR= 'GMOS-N + Hamamatsu' / Detector name                                  
# DEWAR   = 'Lab Cryostat'       / Dewar name                                     
# ARRYTMPD=             -102.657 / Array temperature D (Celsius)                  
# ARRYTMPA=              -96.234 / Array temperature A (Celsius)                  
# ARRYTMPB=              -95.858 / Array temperature B (Celsius)                  
# ARRYTMPC=              -95.076 / Array temperature C (Celsius)                  
# ARRYTSET=               -102.7 / Array temperature Setpoint (Celsius)           
# DETSIZE = '[1:6144,1:4224]'    / Detector size                                  
# NCCDS   =                    3 / Number of CCD chips                            
# NAMPS   =                    4 / Number of amplifiers                           
# SHUTTER = 'OPEN    '           / Shutter state during observation               
# AMPINTEG=                11880 / Amplifier integration time                     
# OBSEPOCH=     2020.65172428619 / Epoch at start of exposure                     
# TIMESYS = 'UTC     '           / Time system used                               
# DATE-OBS= '2020-08-26'         / UT Date of observation (YYYY-MM-DD)            
# GMOSTHT = 'WARNING '           / Shutter health                                 
# NSUBEXP =                    1 / Number of sub exposures                        
# UTSTART = '13:00:57.6167'      / UT at observation start                        
# UTEND   = '13:10:57.6167'      / UT at observation end                          
# EXPTIME =                 600. / Exposure time in seconds                       
# ELAPSED =                 600. / Elapsed observation time in seconds            
# DARKTIME=     621.083354949951 / Dark current integration in seconds            
# MASKID  =             10005354 / Mask/IFU barcode                               
# MASKNAME= '1.0arcsec'          / Mask name                                      
# MASKTYP =                    1 / Mask/IFU type (0=none/-1=IFU/1=mask)           
# MASKLOC =                    0 / Mask/IFU location (-1=unknown/0=FP/1=cassette) 
# FILTER1 = 'open1-6 '           / Filter 1 name                                  
# FILTID1 =             20000018 / Filter 1 barcode                               
# FILTER2 = 'open2-8 '           / Filter 2 name                                  
# FILTID2 =             20000008 / Filter 2 barcode                               
# GRATING = 'B600+_G5307'        / Grating name                                   
# GRATID  =             30000018 / Grating barcode                                
# GRWLEN  =                 520. / Grating wavelength at slit (nm)                
# CENTWAVE=                 520. / Central wavelength (nm)                        
# GRORDER =                    1 / Grating order                                  
# GRTILT  =     55.0884895324707 / Grating tilt angle (degrees)                   
# GRSTEP  =     5887.98372465079 / Requested grating motor step position          
# DTAX    =                  84. / Detector translation X position (microns)      
# DTAY    =                  92. / Detector translation Y position (microns)      
# DTAZ    =                1862. / Detector translation Z position (microns)      
# DTAZST  =                1862. / Focus at observation start (microns)           
# DTAZEN  =                1862. / Focus at observation end (microns)             
# DTAZME  =                1862. / Mean focus during observation (microns)        
# DTMODE  = 'FOLLOW-XY'          / Detector translation stage mode                
# ADCMODE = 'STOP    '           / ADC mode                                       
# GMOSDC  = 'gmosdc-6.10'        / GMOS detector controller s/w                   
# DETTYPE = 'S10892-N'           / Detector array type                            
# DETID   = 'BI13-20-4k-1,BI12-09-4k-2,BI13-18-4k-2' / Chip IDs                   
# EXPOSURE=                 600. / Requested exposure time in seconds             
# ADCUSED =                    1 / ADC used? (0=yes/1=no)                         
# DETNROI =                    1 / No. regions of interest                        
# ADCENPST=                   0. / Start entrance prism angle of ADC              
# ADCENPEN=                   0. / End entrance prism angle of ADC                
# ADCENPME=                   0. / Mean entrance prism angle of ADC               
# ADCEXPST=                   0. / Start exit prism angle of ADC                  
# ADCEXPEN=                   0. / End exit prism angle of ADC                    
# ADCEXPME=                   0. / Mean exit prism angle of ADC                   
# ADCWLEN1=                   0. / Lower wavelength for ADC calculation           
# ADCWLEN2=                   0. / Upper wavelength for ADC calculation           
# DETRO1X =                    1 / ROI 1 X start                                  
# DETRO1XS=                 3072 / ROI 1 X size                                   
# DETRO1Y =                    1 / ROI 1 Y start                                  
# DETRO1YS=                 2112 / ROI 1 Y size                                   
# AIRMASS =     1.15188990932019 / Mean airmass for the observation               
# AMSTART =     1.16440957624516 / Airmass at start of exposure                   
# AMEND   =     1.13985420517773 / Airmass at end of exposure                     
# PROP_MD =                    F / Proprietary Metadata                           
# RELEASE = '2021-08-26'         / End of proprietary period YYY-MM-DD            
# NSCIEXT =                    1 / Number of science extensions                   
# PIXSCALE=               0.1614 / Pixel scale in Y in arcsec/pixel               
# NEXTEND =                    2 / Number of extensions                           
# OBSMODE = 'LONGSLIT'           / Observing mode (IMAGE|IFU|MOS|LONGSLIT)        
# GEM-TLM = '2020-09-03T12:54:29' / UT Last modification with GEMINI              
# GPREPARE= '2020-09-01T07:46:56' / UT Time stamp for GPREPARE                    
# TRIMMED = 'yes     '           / Overscan section trimmed                       
# GGAIN   = '2020-09-01T07:47:14' / UT Time stamp for GGAIN                       
# BIASIM  = 'zero    '           / Bias image used by GIREDUCE                    
# GIREDUCE= '2020-09-01T07:47:14' / UT Time stamp for GIREDUCE                    
# CTYPE1  = 'RA---TAN'           / R.A. in tangent plane projection               
# CTYPE2  = 'DEC--TAN'           / DEC. in tangent plane projection               
# CRPIX1  =        1568.29696921 / Ref pix of axis 1                              
# CRPIX2  =     1044.27820467852 / Ref pix of axis 2                              
# CRVAL1  =     41.5137187491146 / RA at Ref pix in decimal degrees               
# CRVAL2  =     3.33006526281499 / DEC at Ref pix in decimal degrees              
# CD1_1   = -2.80958734426091E-05 / WCS matrix element 1 1                        
# CD1_2   = 3.51226016704096E-05 / WCS matrix element 1 2                         
# CD2_1   = -3.51150649853661E-05 / WCS matrix element 2 1                        
# CD2_2   = -2.80978726385834E-05 / WCS matrix element 2 2                        
# CCDSUM  = '2 2     '           / CCD sum                                        
# GAIN    =                  1.0 / Amplifier gain                                 
# GAINMULT=                 1.65 / Gain multiplication                            
# RDNOISE =                 3.98 / Readout noise                                  
# RADECSYS= 'FK5     '           / R.A./DEC. coordinate system reference          
# EQUINOX =                2000. / Equinox of coordinate system                   
# MJD-OBS =     59087.5430774519 / MJD of start of obseration                     
# DISPAXIS=                    1 / Dispersion Axis                                
# GMOSAIC = '2020-09-01T07:47:15' / UT Time stamp for GMOSAIC                     
# GMSINTER= 'linear  '           / Interpolant used by GMOSAIC                    
# WMEF    = '2020-09-03T12:54:29' / UT Time stamp for WMEF                        
# GSFLATIM= 'flat1.fits'         / Flatfield Image used by gsreduce               
# GSREDUCE= '2020-09-01T07:47:15' / UT Time stamp for GSREDUCE                    
# GSTRANSF= '2020-09-01T08:19:26' / UT Time stamp for GSTRANSFORM                 
# GSEXTRAC= '2020-09-01T10:49:41' / UT Time stamp for GSEXTRACT                   
# GSCALIBR= '2020-09-03T12:54:29' / UT Time stamp for GSCALIBRATE                 
# END
3626.7893    2.6557e-16
3627.8043    2.6381e-16
3628.8192    2.5827e-16
3629.8342    2.5546e-16
3630.8491    2.5080e-16
3631.8641    2.5056e-16
3632.8791    2.4797e-16
3633.8940    2.4988e-16
3634.9090    2.5201e-16
3635.9240    2.4945e-16
3636.9389    2.5465e-16
3637.9539    2.6158e-16
3638.9688    2.6595e-16
3639.9838    2.5968e-16
3640.9988    2.3478e-16
3642.0137    2.4151e-16
3643.0287    2.2002e-16
3644.0437    1.9116e-16
3645.0586    2.3682e-16
3646.0736    2.4778e-16
3647.0885    1.9536e-16
3648.1035    1.5625e-16
3649.1185    2.3618e-16
3650.1334    2.0672e-16
3651.1484    1.9802e-16
3652.1633    1.9413e-16
3653.1783    2.0987e-16
3654.1933    2.0475e-16
3655.2082    1.9351e-16
3656.2232    1.7587e-16
3657.2382    1.7309e-16
3658.2531    1.8357e-16
3659.2681    1.8701e-16
3660.2830    1.9353e-16
3661.2980    2.0524e-16
3662.3130    1.7252e-16
3663.3279    1.8055e-16
3664.3429    1.8193e-16
3665.3579    1.6914e-16
3666.3728    2.0251e-16
3667.3878    1.9519e-16
3668.4027    1.7095e-16
3669.4177    2.1083e-16
3670.4327    1.8628e-16
3671.4476    1.3954e-16
3672.4626    1.6082e-16
3673.4776    1.4421e-16
3674.4925    1.0148e-16
3675.5075    1.2887e-16
3676.5224    1.7807e-16
3677.5374    1.7107e-16
3678.5524    1.6803e-16
3679.5673    1.7207e-16
3680.5823    1.1530e-16
3681.5972    1.1447e-16
3682.6122    1.2008e-16
3683.6272    1.3066e-16
3684.6421    1.4611e-16
3685.6571    1.4740e-16
3686.6721    1.5803e-16
3687.6870    1.3540e-16
3688.7020    1.4140e-16
3689.7169    1.6234e-16
3690.7319    1.7846e-16
3691.7469    1.4266e-16
3692.7618    1.2169e-16
3693.7768    1.3587e-16
3694.7918    1.3663e-16
3695.8067    1.2205e-16
3696.8217    1.0316e-16
3697.8366    7.2171e-17
3698.8516    6.9513e-17
3699.8666    8.8599e-17
3700.8815    7.1430e-17
3701.8965    1.2666e-16
3702.9115    1.4447e-16
3703.9264    6.8899e-17
3704.9414    9.4024e-17
3705.9563    1.2723e-16
3706.9713    1.2557e-16
3707.9863    1.5217e-16
3709.0012    1.4533e-16
3710.0162    1.1538e-16
3711.0311    1.5329e-16
3712.0461    1.6614e-16
3713.0611    8.3828e-17
3714.0760    7.8673e-17
3715.0910    1.0049e-16
3716.1060    9.8648e-17
3717.1209    1.1733e-16
3718.1359    1.1556e-16
3719.1508    1.0755e-16
3720.1658    7.5806e-17
3721.1808    7.1777e-17
3722.1957    7.4385e-17
3723.2107    8.5594e-17
3724.2257    1.0709e-16
3725.2406    1.0509e-16
3726.2556    1.0912e-16
3727.2705    1.0024e-16
3728.2855    7.7655e-17
3729.3005    9.3246e-17
3730.3154    1.0280e-16
3731.3304    1.0633e-16
3732.3453    1.1505e-16
3733.3603    1.1452e-16
3734.3753    1.4909e-16
3735.3902    1.4036e-16
3736.4052    1.0750e-16
3737.4202    9.9481e-17
3738.4351    1.0125e-16
3739.4501    7.5175e-17
3740.4650    7.9184e-17
3741.4800    8.7279e-17
3742.4950    8.6014e-18
3743.5099    1.9188e-17
3744.5249    4.0425e-17
3745.5399    6.9975e-17
3746.5548    8.2673e-17
3747.5698    9.4284e-17
3748.5847    1.0073e-16
3749.5997    1.1110e-16
3750.6147    1.0388e-16
3751.6296    1.3280e-16
3752.6446    1.0925e-16
3753.6595    7.5403e-17
3754.6745    4.8741e-17
3755.6895    9.5254e-17
3756.7044    1.0741e-16
3757.7194    1.1151e-16
3758.7344    1.1002e-16
3759.7493    7.7367e-17
3760.7643    6.9095e-17
3761.7792    9.1799e-17
3762.7942    7.0913e-17
3763.8092    3.4353e-17
3764.8241    4.3686e-17
3765.8391    6.6980e-17
3766.8541    1.0144e-16
3767.8690    9.0050e-17
3768.8840    4.8702e-17
3769.8989    4.5857e-17
3770.9139    7.4880e-17
3771.9289    1.1287e-16
3772.9438    9.8913e-17
3773.9588    8.9355e-17
3774.9738    1.0123e-16
3775.9887    1.0968e-16
3777.0037    5.8971e-17
3778.0186    7.9749e-17
3779.0336    1.0244e-16
3780.0486    1.4739e-16
3781.0635    1.3603e-16
3782.0785    1.1817e-16
3783.0934    1.1700e-16
3784.1084    8.9117e-17
3785.1234    5.0300e-17
3786.1383    5.5582e-17
3787.1533    6.3892e-17
3788.1683    8.6194e-17
3789.1832    1.0452e-16
3790.1982    1.0398e-16
3791.2131    7.7212e-17
3792.2281    9.1869e-17
3793.2431    1.2150e-16
3794.2580    1.0662e-16
3795.2730    7.9480e-17
3796.2880    9.2041e-17
3797.3029    1.2098e-16
3798.3179    1.0249e-16
3799.3328    8.7864e-17
3800.3478    8.8163e-17
3801.3628    8.6672e-17
3802.3777    9.8777e-17
3803.3927    1.2030e-16
3804.4077    1.3252e-16
3805.4226    1.1483e-16
3806.4376    1.0291e-16
3807.4525    7.5270e-17
3808.4675    8.4588e-17
3809.4825    8.3504e-17
3810.4974    7.4973e-17
3811.5124    6.3762e-17
3812.5273    6.4043e-17
3813.5423    6.6946e-17
3814.5573    8.6116e-17
3815.5722    8.8511e-17
3816.5872    5.8013e-17
3817.6022    7.3820e-17
3818.6171    8.4696e-17
3819.6321    7.9738e-17
3820.6470    8.2090e-17
3821.6620    7.7657e-17
3822.6770    5.7301e-17
3823.6919    6.2073e-17
3824.7069    7.6058e-17
3825.7219    9.1844e-17
3826.7368    8.9628e-17
3827.7518    8.4368e-17
3828.7667    8.1536e-17
3829.7817    7.2501e-17
3830.7967    8.3180e-17
3831.8116    7.9863e-17
3832.8266    8.7137e-17
3833.8415    9.4513e-17
3834.8565    1.0625e-16
3835.8715    9.8813e-17
3836.8864    7.5992e-17
3837.9014    7.1701e-17
3838.9164    1.0521e-16
3839.9313    9.5952e-17
3840.9463    8.1690e-17
3841.9612    8.0491e-17
3842.9762    7.9290e-17
3843.9912    9.8074e-17
3845.0061    9.6271e-17
3846.0211    7.8656e-17
3847.0361    7.8572e-17
3848.0510    8.2621e-17
3849.0660    8.6185e-17
3850.0809    6.0083e-17
3851.0959    6.4386e-17
3852.1109    8.0797e-17
3853.1258    7.5373e-17
3854.1408    7.2961e-17
3855.1557    5.4836e-17
3856.1707    6.6622e-17
3857.1857    8.4163e-17
3858.2006    7.4679e-17
3859.2156    7.4345e-17
3860.2306    7.2696e-17
3861.2455    7.9321e-17
3862.2605    9.3965e-17
3863.2754    9.8761e-17
3864.2904    7.4793e-17
3865.3054    6.5882e-17
3866.3203    7.1991e-17
3867.3353    7.3484e-17
3868.3503    7.2384e-17
3869.3652    6.3093e-17
3870.3802    6.4236e-17
3871.3951    7.0593e-17
3872.4101    7.2553e-17
3873.4251    8.3600e-17
3874.4400    8.2622e-17
3875.4550    7.7667e-17
3876.4700    7.3967e-17
3877.4849    6.3250e-17
3878.4999    7.5753e-17
3879.5148    7.1740e-17
3880.5298    7.8708e-17
3881.5448    9.4556e-17
3882.5597    8.7428e-17
3883.5747    8.6421e-17
3884.5896    7.7599e-17
3885.6046    7.3357e-17
3886.6196    8.3295e-17
3887.6345    7.4927e-17
3888.6495    7.4503e-17
3889.6645    7.3310e-17
3890.6794    7.3057e-17
3891.6944    8.1389e-17
3892.7093    8.4860e-17
3893.7243    8.1041e-17
3894.7393    6.4812e-17
3895.7542    5.6278e-17
3896.7692    5.4601e-17
3897.7842    6.6724e-17
3898.7991    7.5866e-17
3899.8141    8.4242e-17
3900.8290    7.4501e-17
3901.8440    6.6998e-17
3902.8590    6.9919e-17
3903.8739    6.2129e-17
3904.8889    7.3560e-17
3905.9038    9.0766e-17
3906.9188    7.5975e-17
3907.9338    6.9292e-17
3908.9487    7.0822e-17
3909.9637    6.9179e-17
3910.9787    6.0055e-17
3911.9936    5.6347e-17
3913.0086    6.1376e-17
3914.0235    6.2032e-17
3915.0385    6.8595e-17
3916.0535    6.9579e-17
3917.0684    6.6688e-17
3918.0834    7.4556e-17
3919.0984    7.4698e-17
3920.1133    7.3549e-17
3921.1283    7.0664e-17
3922.1432    7.5618e-17
3923.1582    8.2195e-17
3924.1732    6.4091e-17
3925.1881    5.7281e-17
3926.2031    6.7274e-17
3927.2181    7.3839e-17
3928.2330    7.2274e-17
3929.2480    6.8351e-17
3930.2629    6.0397e-17
3931.2779    6.1842e-17
3932.2929    6.0731e-17
3933.3078    6.3846e-17
3934.3228    4.9589e-17
3935.3377    6.3242e-17
3936.3527    6.7103e-17
3937.3677    6.7889e-17
3938.3826    6.4792e-17
3939.3976    6.6011e-17
3940.4126    7.0370e-17
3941.4275    7.4576e-17
3942.4425    7.2335e-17
3943.4574    7.1965e-17
3944.4724    6.8110e-17
3945.4874    6.7339e-17
3946.5023    6.6388e-17
3947.5173    6.7380e-17
3948.5323    6.1537e-17
3949.5472    5.7999e-17
3950.5622    6.6936e-17
3951.5771    6.5124e-17
3952.5921    6.5414e-17
3953.6071    6.4009e-17
3954.6220    5.8446e-17
3955.6370    5.6442e-17
3956.6519    5.7979e-17
3957.6669    5.8190e-17
3958.6819    5.5229e-17
3959.6968    6.0671e-17
3960.7118    6.6747e-17
3961.7268    6.4633e-17
3962.7417    6.1179e-17
3963.7567    4.7723e-17
3964.7716    4.6336e-17
3965.7866    5.6949e-17
3966.8016    6.9289e-17
3967.8165    7.2741e-17
3968.8315    6.3753e-17
3969.8465    5.0825e-17
3970.8614    4.7355e-17
3971.8764    5.6650e-17
3972.8913    6.4318e-17
3973.9063    5.8670e-17
3974.9213    6.5386e-17
3975.9362    5.9378e-17
3976.9512    5.5734e-17
3977.9662    5.4630e-17
3978.9811    6.5951e-17
3979.9961    6.6810e-17
3981.0110    6.5359e-17
3982.0260    6.6262e-17
3983.0410    6.5259e-17
3984.0559    5.9454e-17
3985.0709    5.9200e-17
3986.0858    7.1826e-17
3987.1008    6.6620e-17
3988.1158    5.6260e-17
3989.1307    5.5993e-17
3990.1457    5.2195e-17
3991.1607    4.8973e-17
3992.1756    5.8369e-17
3993.1906    6.0663e-17
3994.2055    5.6587e-17
3995.2205    5.8248e-17
3996.2355    4.7090e-17
3997.2504    5.4661e-17
3998.2654    6.3117e-17
3999.2804    5.9941e-17
4000.2953    6.6767e-17
4001.3103    5.7930e-17
4002.3252    4.9701e-17
4003.3402    5.6289e-17
4004.3552    5.9070e-17
4005.3701    6.4742e-17
4006.3851    6.3414e-17
4007.4000    5.6346e-17
4008.4150    6.2788e-17
4009.4300    7.0850e-17
4010.4449    7.1778e-17
4011.4599    6.9875e-17
4012.4749    5.9641e-17
4013.4898    5.5952e-17
4014.5048    5.3710e-17
4015.5197    5.2964e-17
4016.5347    5.8145e-17
4017.5497    5.2612e-17
4018.5646    5.1197e-17
4019.5796    5.4464e-17
4020.5946    4.9802e-17
4021.6095    6.1698e-17
4022.6245    5.2643e-17
4023.6394    4.3837e-17
4024.6544    4.9040e-17
4025.6694    5.0132e-17
4026.6843    5.0466e-17
4027.6993    5.4017e-17
4028.7143    5.6634e-17
4029.7292    5.6001e-17
4030.7442    6.5661e-17
4031.7591    6.3614e-17
4032.7741    6.0494e-17
4033.7891    5.5398e-17
4034.8040    5.2759e-17
4035.8190    6.0168e-17
4036.8339    5.6959e-17
4037.8489    5.2787e-17
4038.8639    5.2414e-17
4039.8788    5.0961e-17
4040.8938    5.4607e-17
4041.9088    5.1839e-17
4042.9237    5.4815e-17
4043.9387    5.5225e-17
4044.9536    5.7857e-17
4045.9686    6.2838e-17
4046.9836    5.8191e-17
4047.9985    5.5721e-17
4049.0135    5.3471e-17
4050.0285    5.4474e-17
4051.0434    6.1612e-17
4052.0584    6.5551e-17
4053.0733    6.0037e-17
4054.0883    5.3379e-17
4055.1033    5.9401e-17
4056.1182    5.5687e-17
4057.1332    5.3457e-17
4058.1481    5.4515e-17
4059.1631    5.5370e-17
4060.1781    5.1503e-17
4061.1930    5.1581e-17
4062.2080    5.1435e-17
4063.2230    5.2932e-17
4064.2379    5.5783e-17
4065.2529    5.7437e-17
4066.2678    6.1088e-17
4067.2828    5.6978e-17
4068.2978    4.2065e-17
4069.3127    4.7174e-17
4070.3277    4.9403e-17
4071.3427    5.5950e-17
4072.3576    5.9165e-17
4073.3726    5.8488e-17
4074.3875    5.4339e-17
4075.4025    5.4923e-17
4076.4175    5.9752e-17
4077.4324    5.5819e-17
4078.4474    5.1545e-17
4079.4624    5.1340e-17
4080.4773    5.5069e-17
4081.4923    5.6778e-17
4082.5072    5.6383e-17
4083.5222    4.7620e-17
4084.5372    4.6129e-17
4085.5521    5.0027e-17
4086.5671    5.7592e-17
4087.5820    6.3083e-17
4088.5970    5.8462e-17
4089.6120    5.7328e-17
4090.6269    5.5059e-17
4091.6419    4.9262e-17
4092.6569    5.4246e-17
4093.6718    5.6919e-17
4094.6868    5.4423e-17
4095.7017    5.1857e-17
4096.7167    5.7366e-17
4097.7317    5.5687e-17
4098.7466    5.9184e-17
4099.7616    5.4905e-17
4100.7766    5.6035e-17
4101.7915    5.7908e-17
4102.8065    5.3921e-17
4103.8214    4.7502e-17
4104.8364    5.1410e-17
4105.8514    5.1552e-17
4106.8663    5.4754e-17
4107.8813    5.9677e-17
4108.8962    5.9518e-17
4109.9112    5.7215e-17
4110.9262    5.3890e-17
4111.9411    5.9716e-17
4112.9561    6.0030e-17
4113.9711    6.3072e-17
4114.9860    6.0582e-17
4116.0010    5.0927e-17
4117.0159    4.9996e-17
4118.0309    5.5304e-17
4119.0459    5.2316e-17
4120.0608    5.4376e-17
4121.0758    5.6816e-17
4122.0908    5.1150e-17
4123.1057    5.0218e-17
4124.1207    5.6633e-17
4125.1356    5.4888e-17
4126.1506    4.6670e-17
4127.1656    4.8819e-17
4128.1805    5.7661e-17
4129.1955    5.8816e-17
4130.2105    4.8195e-17
4131.2254    4.9515e-17
4132.2404    5.3117e-17
4133.2553    5.0798e-17
4134.2703    5.1468e-17
4135.2853    5.7482e-17
4136.3002    5.6053e-17
4137.3152    5.3349e-17
4138.3301    5.4106e-17
4139.3451    5.1772e-17
4140.3601    4.6544e-17
4141.3750    4.9388e-17
4142.3900    5.3081e-17
4143.4050    5.1793e-17
4144.4199    5.5719e-17
4145.4349    5.4663e-17
4146.4498    5.6842e-17
4147.4648    5.8974e-17
4148.4798    5.7481e-17
4149.4947    5.2774e-17
4150.5097    5.3340e-17
4151.5247    5.9124e-17
4152.5396    6.1755e-17
4153.5546    5.6374e-17
4154.5695    5.6296e-17
4155.5845    4.8656e-17
4156.5995    5.2161e-17
4157.6144    5.7088e-17
4158.6294    5.5449e-17
4159.6443    5.3284e-17
4160.6593    4.5429e-17
4161.6743    4.7025e-17
4162.6892    4.5779e-17
4163.7042    4.9541e-17
4164.7192    5.5762e-17
4165.7341    5.0709e-17
4166.7491    5.2345e-17
4167.7640    5.5884e-17
4168.7790    4.8461e-17
4169.7940    4.7602e-17
4170.8089    5.3283e-17
4171.8239    6.1061e-17
4172.8389    5.6550e-17
4173.8538    5.5627e-17
4174.8688    5.6423e-17
4175.8837    5.7829e-17
4176.8987    6.0245e-17
4177.9137    5.4786e-17
4178.9286    5.2880e-17
4179.9436    5.7930e-17
4180.9586    5.3334e-17
4181.9735    5.0997e-17
4182.9885    4.7385e-17
4184.0034    4.8030e-17
4185.0184    5.0770e-17
4186.0334    5.6614e-17
4187.0483    6.0663e-17
4188.0633    5.3484e-17
4189.0782    4.9228e-17
4190.0932    4.5481e-17
4191.1082    4.5467e-17
4192.1231    5.0317e-17
4193.1381    4.5720e-17
4194.1531    4.5233e-17
4195.1680    4.7330e-17
4196.1830    4.4726e-17
4197.1979    4.9377e-17
4198.2129    5.4508e-17
4199.2279    5.5346e-17
4200.2428    5.0424e-17
4201.2578    4.2787e-17
4202.2728    4.8496e-17
4203.2877    5.5840e-17
4204.3027    5.8717e-17
4205.3176    5.4186e-17
4206.3326    5.0072e-17
4207.3476    5.1351e-17
4208.3625    5.1236e-17
4209.3775    5.5370e-17
4210.3924    4.7474e-17
4211.4074    4.4540e-17
4212.4224    4.9662e-17
4213.4373    5.3044e-17
4214.4523    5.6463e-17
4215.4673    5.1274e-17
4216.4822    5.0578e-17
4217.4972    5.0178e-17
4218.5121    4.9431e-17
4219.5271    4.8628e-17
4220.5421    4.8422e-17
4221.5570    5.3889e-17
4222.5720    5.1226e-17
4223.5870    5.3621e-17
4224.6019    4.9617e-17
4225.6169    4.7076e-17
4226.6318    4.9271e-17
4227.6468    5.2568e-17
4228.6618    5.1666e-17
4229.6767    5.7756e-17
4230.6917    5.5842e-17
4231.7067    5.9089e-17
4232.7216    5.2897e-17
4233.7366    5.5534e-17
4234.7515    5.7459e-17
4235.7665    5.8344e-17
4236.7815    5.8490e-17
4237.7964    5.6257e-17
4238.8114    5.2012e-17
4239.8263    5.0373e-17
4240.8413    5.0028e-17
4241.8563    4.8385e-17
4242.8712    4.7480e-17
4243.8862    4.8177e-17
4244.9012    4.8585e-17
4245.9161    5.4374e-17
4246.9311    6.0057e-17
4247.9460    5.5553e-17
4248.9610    4.9901e-17
4249.9760    4.4192e-17
4250.9909    4.5444e-17
4252.0059    4.7331e-17
4253.0209    4.7023e-17
4254.0358    4.7452e-17
4255.0508    4.6638e-17
4256.0657    4.8805e-17
4257.0807    5.4527e-17
4258.0957    5.3973e-17
4259.1106    5.1210e-17
4260.1256    5.1072e-17
4261.1406    5.3225e-17
4262.1555    5.0267e-17
4263.1705    4.7258e-17
4264.1854    4.8946e-17
4265.2004    4.7478e-17
4266.2154    4.9207e-17
4267.2303    4.8563e-17
4268.2453    4.3497e-17
4269.2602    4.6334e-17
4270.2752    5.1631e-17
4271.2902    5.1486e-17
4272.3051    5.1615e-17
4273.3201    4.2791e-17
4274.3351    4.8654e-17
4275.3500    5.3865e-17
4276.3650    5.5372e-17
4277.3799    4.8726e-17
4278.3949    5.3046e-17
4279.4099    5.1095e-17
4280.4248    4.8965e-17
4281.4398    5.6330e-17
4282.4548    5.1095e-17
4283.4697    4.7728e-17
4284.4847    4.9144e-17
4285.4996    4.8732e-17
4286.5146    4.9655e-17
4287.5296    5.5259e-17
4288.5445    5.5498e-17
4289.5595    5.0374e-17
4290.5744    4.6128e-17
4291.5894    4.6628e-17
4292.6044    4.7247e-17
4293.6193    4.7227e-17
4294.6343    5.1207e-17
4295.6493    4.9343e-17
4296.6642    4.7227e-17
4297.6792    5.1557e-17
4298.6941    5.6016e-17
4299.7091    5.9923e-17
4300.7241    5.4619e-17
4301.7390    5.0782e-17
4302.7540    5.1911e-17
4303.7690    5.1108e-17
4304.7839    4.5812e-17
4305.7989    4.2105e-17
4306.8138    4.7674e-17
4307.8288    4.8956e-17
4308.8438    4.8267e-17
4309.8587    5.3095e-17
4310.8737    5.0454e-17
4311.8886    4.8328e-17
4312.9036    5.2699e-17
4313.9186    5.1958e-17
4314.9335    5.3805e-17
4315.9485    5.0834e-17
4316.9635    4.8196e-17
4317.9784    5.0025e-17
4318.9934    5.2883e-17
4320.0083    5.4333e-17
4321.0233    4.9705e-17
4322.0383    4.9033e-17
4323.0532    5.0942e-17
4324.0682    4.7727e-17
4325.0832    4.8130e-17
4326.0981    4.8707e-17
4327.1131    4.9706e-17
4328.1280    5.0897e-17
4329.1430    4.9073e-17
4330.1580    4.9246e-17
4331.1729    4.6703e-17
4332.1879    4.7776e-17
4333.2029    4.5603e-17
4334.2178    4.6382e-17
4335.2328    5.0813e-17
4336.2477    4.8566e-17
4337.2627    4.1705e-17
4338.2777    4.6386e-17
4339.2926    5.5198e-17
4340.3076    5.5251e-17
4341.3225    5.1067e-17
4342.3375    5.3045e-17
4343.3525    4.1681e-17
4344.3674    4.5000e-17
4345.3824    4.9144e-17
4346.3974    5.1414e-17
4347.4123    5.1796e-17
4348.4273    5.5292e-17
4349.4422    4.7946e-17
4350.4572    4.2486e-17
4351.4722    4.6501e-17
4352.4871    5.0051e-17
4353.5021    4.5549e-17
4354.5171    4.3748e-17
4355.5320    4.4891e-17
4356.5470    4.5392e-17
4357.5619    4.8868e-17
4358.5769    4.9115e-17
4359.5919    5.0514e-17
4360.6068    5.4632e-17
4361.6218    5.3626e-17
4362.6367    5.1643e-17
4363.6517    5.1451e-17
4364.6667    4.4577e-17
4365.6816    5.0632e-17
4366.6966    5.3319e-17
4367.7116    4.4347e-17
4368.7265    4.0626e-17
4369.7415    4.3649e-17
4370.7564    4.8606e-17
4371.7714    5.0380e-17
4372.7864    5.7802e-17
4373.8013    5.2726e-17
4374.8163    4.6793e-17
4375.8313    4.4805e-17
4376.8462    4.4702e-17
4377.8612    4.8070e-17
4378.8761    5.4522e-17
4379.8911    5.4114e-17
4380.9061    5.1146e-17
4381.9210    4.9276e-17
4382.9360    4.5120e-17
4383.9510    4.3563e-17
4384.9659    4.5424e-17
4385.9809    4.3741e-17
4386.9958    4.5394e-17
4388.0108    4.9340e-17
4389.0258    5.0899e-17
4390.0407    5.0650e-17
4391.0557    4.5259e-17
4392.0706    4.0379e-17
4393.0856    4.2547e-17
4394.1006    4.9640e-17
4395.1155    5.2202e-17
4396.1305    4.9056e-17
4397.1455    4.6542e-17
4398.1604    4.0491e-17
4399.1754    4.0916e-17
4400.1903    4.4425e-17
4401.2053    4.5396e-17
4402.2203    4.1033e-17
4403.2352    4.8761e-17
4404.2502    4.7524e-17
4405.2652    4.8479e-17
4406.2801    4.3716e-17
4407.2951    4.6860e-17
4408.3100    4.5146e-17
4409.3250    4.7538e-17
4410.3400    4.7875e-17
4411.3549    4.1266e-17
4412.3699    3.7485e-17
4413.3848    4.5426e-17
4414.3998    5.2257e-17
4415.4148    5.3318e-17
4416.4297    4.5698e-17
4417.4447    4.3169e-17
4418.4597    4.6667e-17
4419.4746    4.6572e-17
4420.4896    4.5632e-17
4421.5045    4.3643e-17
4422.5195    3.5904e-17
4423.5345    4.4093e-17
4424.5494    4.5243e-17
4425.5644    4.3120e-17
4426.5794    5.0707e-17
4427.5943    5.5964e-17
4428.6093    5.0463e-17
4429.6242    4.3880e-17
4430.6392    4.1235e-17
4431.6542    4.0839e-17
4432.6691    3.8389e-17
4433.6841    4.4159e-17
4434.6991    4.6815e-17
4435.7140    4.2933e-17
4436.7290    4.4921e-17
4437.7439    4.6023e-17
4438.7589    4.2099e-17
4439.7739    4.4351e-17
4440.7888    4.3529e-17
4441.8038    4.5831e-17
4442.8187    4.3256e-17
4443.8337    4.2905e-17
4444.8487    4.5645e-17
4445.8636    4.6345e-17
4446.8786    4.5807e-17
4447.8936    4.6517e-17
4448.9085    4.8950e-17
4449.9235    4.8578e-17
4450.9384    4.7337e-17
4451.9534    4.6951e-17
4452.9684    4.6859e-17
4453.9833    4.7204e-17
4454.9983    4.2411e-17
4456.0133    4.1760e-17
4457.0282    4.7217e-17
4458.0432    4.7427e-17
4459.0581    4.1701e-17
4460.0731    4.1802e-17
4461.0881    4.4234e-17
4462.1030    4.3634e-17
4463.1180    4.2566e-17
4464.1330    4.4428e-17
4465.1479    4.4617e-17
4466.1629    4.2219e-17
4467.1778    4.4519e-17
4468.1928    4.2791e-17
4469.2078    4.2894e-17
4470.2227    4.5098e-17
4471.2377    4.7146e-17
4472.2526    4.2879e-17
4473.2676    3.4928e-17
4474.2826    4.2194e-17
4475.2975    4.8253e-17
4476.3125    4.4072e-17
4477.3275    4.3694e-17
4478.3424    4.6896e-17
4479.3574    4.4669e-17
4480.3723    3.9775e-17
4481.3873    4.0166e-17
4482.4023    4.5954e-17
4483.4172    5.1246e-17
4484.4322    4.8953e-17
4485.4472    4.3279e-17
4486.4621    4.2599e-17
4487.4771    5.1900e-17
4488.4920    5.0082e-17
4489.5070    4.6751e-17
4490.5220    4.8904e-17
4491.5369    4.6028e-17
4492.5519    5.0503e-17
4493.5668    4.6911e-17
4494.5818    3.9214e-17
4495.5968    3.9153e-17
4496.6117    4.3853e-17
4497.6267    4.3130e-17
4498.6417    4.8793e-17
4499.6566    4.9087e-17
4500.6716    4.7681e-17
4501.6865    4.4581e-17
4502.7015    4.3375e-17
4503.7165    4.3008e-17
4504.7314    3.9586e-17
4505.7464    4.1700e-17
4506.7614    4.3449e-17
4507.7763    4.6095e-17
4508.7913    5.1895e-17
4509.8062    4.7217e-17
4510.8212    4.9491e-17
4511.8362    5.0978e-17
4512.8511    4.8426e-17
4513.8661    4.9303e-17
4514.8810    5.0230e-17
4515.8960    4.5278e-17
4516.9110    4.0358e-17
4517.9259    4.2809e-17
4518.9409    4.8829e-17
4519.9559    4.6918e-17
4520.9708    4.3612e-17
4521.9858    4.2353e-17
4523.0007    4.3637e-17
4524.0157    4.0948e-17
4525.0307    3.9571e-17
4526.0456    4.2004e-17
4527.0606    4.5620e-17
4528.0756    4.5391e-17
4529.0905    4.3686e-17
4530.1055    4.1026e-17
4531.1204    4.2074e-17
4532.1354    4.3763e-17
4533.1504    4.8893e-17
4534.1653    4.6950e-17
4535.1803    4.4523e-17
4536.1953    4.5027e-17
4537.2102    3.8516e-17
4538.2252    3.9365e-17
4539.2401    4.3374e-17
4540.2551    4.6990e-17
4541.2701    4.6768e-17
4542.2850    4.6565e-17
4543.3000    4.8950e-17
4544.3149    5.0612e-17
4545.3299    5.0848e-17
4546.3449    4.5679e-17
4547.3598    3.8259e-17
4548.3748    4.0246e-17
4549.3898    4.6149e-17
4550.4047    4.2591e-17
4551.4197    4.1969e-17
4552.4346    4.3989e-17
4553.4496    4.4544e-17
4554.4646    4.2381e-17
4555.4795    3.9398e-17
4556.4945    3.9305e-17
4557.5095    3.9537e-17
4558.5244    3.8682e-17
4559.5394    4.0235e-17
4560.5543    4.4522e-17
4561.5693    4.3341e-17
4562.5843    4.8843e-17
4563.5992    5.0271e-17
4564.6142    4.5179e-17
4565.6291    4.7432e-17
4566.6441    4.6679e-17
4567.6591    3.8698e-17
4568.6740    4.3397e-17
4569.6890    4.3966e-17
4570.7040    4.1211e-17
4571.7189    4.0353e-17
4572.7339    4.4119e-17
4573.7488    4.2447e-17
4574.7638    3.6751e-17
4575.7788    3.5874e-17
4576.7937    4.0302e-17
4577.8087    4.6461e-17
4578.8237    4.6047e-17
4579.8386    4.2251e-17
4580.8536    4.5153e-17
4581.8685    4.1225e-17
4582.8835    3.9794e-17
4583.8985    3.8132e-17
4584.9134    3.5787e-17
4585.9284    3.6232e-17
4586.9434    3.8023e-17
4587.9583    4.1010e-17
4588.9733    4.1043e-17
4589.9882    3.5504e-17
4591.0032    3.9346e-17
4592.0182    4.4648e-17
4593.0331    4.0349e-17
4594.0481    3.9733e-17
4595.0630    4.3002e-17
4596.0780    4.3684e-17
4597.0930    4.3904e-17
4598.1079    4.5127e-17
4599.1229    4.4013e-17
4600.1379    4.5988e-17
4601.1528    4.3114e-17
4602.1678    3.9823e-17
4603.1827    4.1567e-17
4604.1977    4.1293e-17
4605.2127    4.1910e-17
4606.2276    4.2200e-17
4607.2426    3.8475e-17
4608.2576    3.4882e-17
4609.2725    4.0535e-17
4610.2875    4.1216e-17
4611.3024    4.2072e-17
4612.3174    4.2537e-17
4613.3324    4.3954e-17
4614.3473    4.4602e-17
4615.3623    3.7444e-17
4616.3772    4.0210e-17
4617.3922    4.5671e-17
4618.4072    4.5074e-17
4619.4221    4.3698e-17
4620.4371    4.3440e-17
4621.4521    4.2038e-17
4622.4670    4.3443e-17
4623.4820    4.1190e-17
4624.4969    4.2420e-17
4625.5119    4.3130e-17
4626.5269    4.4454e-17
4627.5418    4.4293e-17
4628.5568    4.1785e-17
4629.5718    4.1714e-17
4630.5867    3.8106e-17
4631.6017    3.4502e-17
4632.6166    3.5546e-17
4633.6316    3.6533e-17
4634.6466    3.7237e-17
4635.6615    3.8612e-17
4636.6765    3.6940e-17
4637.6915    3.6136e-17
4638.7064    4.0831e-17
4639.7214    4.2795e-17
4640.7363    3.9581e-17
4641.7513    3.7217e-17
4642.7663    3.6160e-17
4643.7812    3.4786e-17
4644.7962    3.6655e-17
4645.8111    3.4526e-17
4646.8261    3.5515e-17
4647.8411    4.1983e-17
4648.8560    4.4382e-17
4649.8710    4.1440e-17
4650.8860    4.0262e-17
4651.9009    3.5948e-17
4652.9159    3.1761e-17
4653.9308    3.3142e-17
4654.9458    3.8046e-17
4655.9608    4.3263e-17
4656.9757    3.9715e-17
4657.9907    3.3228e-17
4659.0057    3.4507e-17
4660.0206    3.7666e-17
4661.0356    3.9407e-17
4662.0505    4.1424e-17
4663.0655    4.2969e-17
4664.0805    4.6361e-17
4665.0954    4.7760e-17
4666.1104    4.6547e-17
4667.1254    4.7073e-17
4668.1403    4.0862e-17
4669.1553    3.3838e-17
4670.1702    3.6882e-17
4671.1852    4.5908e-17
4672.2002    5.2032e-17
4673.2151    5.1702e-17
4674.2301    5.0000e-17
4675.2450    4.7988e-17
4676.2600    4.7351e-17
4677.2750    4.5651e-17
4678.2899    3.9158e-17
4679.3049    3.3665e-17
4680.3199    3.4144e-17
4681.3348    3.9595e-17
4682.3498    4.5037e-17
4683.3647    4.7659e-17
4684.3797    4.4441e-17
4685.3947    4.1059e-17
4686.4096    3.8950e-17
4687.4246    3.7366e-17
4688.4396    3.9077e-17
4689.4545    3.8514e-17
4690.4695    3.8973e-17
4691.4844    4.3386e-17
4692.4994    4.9111e-17
4693.5144    4.7197e-17
4694.5293    3.7926e-17
4695.5443    3.7836e-17
4696.5592    4.1986e-17
4697.5742    4.1240e-17
4698.5892    4.0994e-17
4699.6041    3.8808e-17
4700.6191    5.0030e-17
4701.6341    3.4387e-17
4702.6490    5.7258e-17
4703.6640    4.0135e-17
4704.6789    4.6879e-17
4705.6939    4.8618e-17
4706.7089    4.6798e-17
4707.7238    3.0438e-17
4708.7388    2.7778e-17
4709.7538    4.8353e-17
4710.7687    4.0727e-17
4711.7837    5.4604e-17
4712.7986    4.8796e-17
4713.8136    5.4428e-17
4714.8286    3.6956e-17
4715.8435    4.0805e-17
4716.8585    4.0516e-17
4717.8735    4.7061e-17
4718.8884    4.0717e-17
4719.9034    3.3548e-17
4720.9183    3.8475e-17
4721.9333    3.0723e-17
4722.9483    3.4361e-17
4723.9632    3.6324e-17
4724.9782    4.6326e-17
4725.9931    3.4491e-17
4727.0081    4.3292e-17
4728.0231    2.9545e-17
4729.0380    3.3885e-17
4730.0530    3.7685e-17
4731.0680    4.0103e-17
4732.0829    3.7341e-17
4733.0979    4.4963e-17
4734.1128    4.0390e-17
4735.1278    4.8708e-17
4736.1428    4.4972e-17
4737.1577    4.4765e-17
4738.1727    4.0028e-17
4739.1877    4.2907e-17
4740.2026    4.2025e-17
4741.2176    3.0093e-17
4742.2325    3.0709e-17
4743.2475    3.9829e-17
4744.2625    4.5137e-17
4745.2774    4.0320e-17
4746.2924    3.8116e-17
4747.3073    4.0652e-17
4748.3223    4.0122e-17
4749.3373    4.2464e-17
4750.3522    4.1503e-17
4751.3672    3.9496e-17
4752.3822    4.0330e-17
4753.3971    3.5915e-17
4754.4121    3.8319e-17
4755.4270    3.7420e-17
4756.4420    3.5482e-17
4757.4570    3.0933e-17
4758.4719    3.4065e-17
4759.4869    3.8512e-17
4760.5019    3.8029e-17
4761.5168    3.8639e-17
4762.5318    4.2704e-17
4763.5467    3.9517e-17
4764.5617    3.3896e-17
4765.5767    3.2509e-17
4766.5916    3.8208e-17
4767.6066    3.8814e-17
4768.6215    3.6882e-17
4769.6365    3.4952e-17
4770.6515    3.6479e-17
4771.6664    3.7962e-17
4772.6814    3.6709e-17
4773.6964    3.3512e-17
4774.7113    3.5866e-17
4775.7263    3.7261e-17
4776.7412    4.2227e-17
4777.7562    4.2439e-17
4778.7712    3.4654e-17
4779.7861    3.0188e-17
4780.8011    3.8309e-17
4781.8161    3.8986e-17
4782.8310    3.8880e-17
4783.8460    3.8188e-17
4784.8609    3.7023e-17
4785.8759    3.9266e-17
4786.8909    3.6450e-17
4787.9058    4.0176e-17
4788.9208    3.5257e-17
4789.9358    3.9104e-17
4790.9507    4.2203e-17
4791.9657    4.0968e-17
4792.9806    3.9375e-17
4793.9956    3.6086e-17
4795.0106    3.8048e-17
4796.0255    3.3617e-17
4797.0405    3.7876e-17
4798.0554    3.4558e-17
4799.0704    3.0271e-17
4800.0854    3.4282e-17
4801.1003    3.4950e-17
4802.1153    3.9723e-17
4803.1303    3.1580e-17
4804.1452    3.6572e-17
4805.1602    3.9269e-17
4806.1751    4.1315e-17
4807.1901    4.1762e-17
4808.2051    2.8995e-17
4809.2200    2.9881e-17
4810.2350    3.4514e-17
4811.2500    3.6683e-17
4812.2649    3.7900e-17
4813.2799    3.9983e-17
4814.2948    4.0412e-17
4815.3098    3.9861e-17
4816.3248    3.9737e-17
4817.3397    3.5075e-17
4818.3547    3.7175e-17
4819.3696    3.9100e-17
4820.3846    3.7607e-17
4821.3996    3.4030e-17
4822.4145    3.6512e-17
4823.4295    3.8794e-17
4824.4445    3.3133e-17
4825.4594    3.5412e-17
4826.4744    3.1856e-17
4827.4893    4.0808e-17
4828.5043    4.2060e-17
4829.5193    3.8273e-17
4830.5342    3.4786e-17
4831.5492    4.2406e-17
4832.5642    4.1725e-17
4833.5791    4.1414e-17
4834.5941    4.6827e-17
4835.6090    3.2982e-17
4836.6240    3.5489e-17
4837.6390    3.3203e-17
4838.6539    3.6906e-17
4839.6689    3.3724e-17
4840.6839    4.0520e-17
4841.6988    2.4613e-17
4842.7138    3.3775e-17
4843.7287    4.0561e-17
4844.7437    4.6419e-17
4845.7587    4.3128e-17
4846.7736    3.2529e-17
4847.7886    4.2244e-17
4848.8035    4.3907e-17
4849.8185    3.9251e-17
4850.8335    3.2451e-17
4851.8484    3.4448e-17
4852.8634    3.7039e-17
4853.8784    3.9685e-17
4854.8933    4.1941e-17
4855.9083    3.7380e-17
4856.9232    2.9507e-17
4857.9382    3.2899e-17
4858.9532    3.1533e-17
4859.9681    3.5647e-17
4860.9831    4.1213e-17
4861.9981    3.8729e-17
4863.0130    3.9232e-17
4864.0280    3.5149e-17
4865.0429    3.7461e-17
4866.0579    3.2266e-17
4867.0729    3.2111e-17
4868.0878    3.4703e-17
4869.1028    2.9137e-17
4870.1177    3.5950e-17
4871.1327    3.5970e-17
4872.1477    3.1584e-17
4873.1626    3.3821e-17
4874.1776    2.9624e-17
4875.1926    3.4759e-17
4876.2075    3.1594e-17
4877.2225    3.8579e-17
4878.2374    3.0923e-17
4879.2524    3.6542e-17
4880.2674    3.0916e-17
4881.2823    3.2429e-17
4882.2973    4.6522e-17
4883.3123    3.8430e-17
4884.3272    3.1289e-17
4885.3422    3.0250e-17
4886.3571    3.2685e-17
4887.3721    3.1087e-17
4888.3871    3.3550e-17
4889.4020    3.5250e-17
4890.4170    3.7459e-17
4891.4320    3.9601e-17
4892.4469    3.1033e-17
4893.4619    3.3733e-17
4894.4768    3.7904e-17
4895.4918    3.4620e-17
4896.5068    3.6544e-17
4897.5217    3.5539e-17
4898.5367    3.5234e-17
4899.5516    3.9858e-17
4900.5666    3.5430e-17
4901.5816    3.6721e-17
4902.5965    3.4694e-17
4903.6115    3.7481e-17
4904.6265    3.4552e-17
4905.6414    3.1951e-17
4906.6564    3.8324e-17
4907.6713    3.3149e-17
4908.6863    3.3066e-17
4909.7013    3.6747e-17
4910.7162    3.7995e-17
4911.7312    3.5633e-17
4912.7462    3.6843e-17
4913.7611    3.6613e-17
4914.7761    3.3724e-17
4915.7910    3.5349e-17
4916.8060    3.7569e-17
4917.8210    3.2347e-17
4918.8359    3.6502e-17
4919.8509    3.4557e-17
4920.8659    3.3336e-17
4921.8808    3.2064e-17
4922.8958    2.8433e-17
4923.9107    3.2807e-17
4924.9257    3.5919e-17
4925.9407    3.3635e-17
4926.9556    3.5847e-17
4927.9706    3.7093e-17
4928.9855    3.7956e-17
4930.0005    3.7806e-17
4931.0155    3.8857e-17
4932.0304    3.4380e-17
4933.0454    2.9957e-17
4934.0604    3.2818e-17
4935.0753    3.6964e-17
4936.0903    3.3602e-17
4937.1052    3.7271e-17
4938.1202    3.9975e-17
4939.1352    3.6054e-17
4940.1501    3.6142e-17
4941.1651    3.2464e-17
4942.1801    3.3523e-17
4943.1950    3.6595e-17
4944.2100    3.5036e-17
4945.2249    3.1904e-17
4946.2399    3.3878e-17
4947.2549    3.4323e-17
4948.2698    3.6205e-17
4949.2848    3.6717e-17
4950.2997    3.2642e-17
4951.3147    3.1951e-17
4952.3297    3.0109e-17
4953.3446    2.9418e-17
4954.3596    3.1625e-17
4955.3746    3.4202e-17
4956.3895    3.3894e-17
4957.4045    3.4596e-17
4958.4194    3.1883e-17
4959.4344    3.0760e-17
4960.4494    3.3001e-17
4961.4643    3.5451e-17
4962.4793    3.4969e-17
4963.4943    3.5946e-17
4964.5092    3.6028e-17
4965.5242    3.3503e-17
4966.5391    3.2485e-17
4967.5541    3.7317e-17
4968.5691    3.9636e-17
4969.5840    3.7269e-17
4970.5990    3.8245e-17
4971.6139    3.6641e-17
4972.6289    3.6737e-17
4973.6439    3.5713e-17
4974.6588    3.5726e-17
4975.6738    3.4317e-17
4976.6888    2.9431e-17
4977.7037    2.7504e-17
4978.7187    2.8602e-17
4979.7336    2.8471e-17
4980.7486    2.8761e-17
4981.7636    3.6382e-17
4982.7785    3.8792e-17
4983.7935    3.6365e-17
4984.8085    3.7923e-17
4985.8234    3.4520e-17
4986.8384    3.0915e-17
4987.8533    3.1801e-17
4988.8683    3.3431e-17
4989.8833    3.4518e-17
4990.8982    3.4736e-17
4991.9132    3.2439e-17
4992.9282    3.4473e-17
4993.9431    3.5415e-17
4994.9581    3.3493e-17
4995.9730    3.0880e-17
4996.9880    3.0198e-17
4998.0030    2.9695e-17
4999.0179    2.8383e-17
5000.0329    3.3739e-17
5001.0478    3.6309e-17
5002.0628    3.4328e-17
5003.0778    3.4910e-17
5004.0927    3.0856e-17
5005.1077    3.0275e-17
5006.1227    3.3427e-17
5007.1376    3.3280e-17
5008.1526    3.1557e-17
5009.1675    3.5825e-17
5010.1825    3.5853e-17
5011.1975    3.4056e-17
5012.2124    3.4087e-17
5013.2274    3.3142e-17
5014.2424    3.5389e-17
5015.2573    3.4427e-17
5016.2723    3.2248e-17
5017.2872    3.2684e-17
5018.3022    2.9784e-17
5019.3172    3.0720e-17
5020.3321    3.4411e-17
5021.3471    3.4770e-17
5022.3620    2.8742e-17
5023.3770    2.5185e-17
5024.3920    2.9934e-17
5025.4069    3.3072e-17
5026.4219    3.2393e-17
5027.4369    3.1640e-17
5028.4518    3.2676e-17
5029.4668    3.0711e-17
5030.4817    2.8167e-17
5031.4967    2.8493e-17
5032.5117    3.2117e-17
5033.5266    3.3032e-17
5034.5416    3.3252e-17
5035.5566    3.0788e-17
5036.5715    3.1025e-17
5037.5865    3.2743e-17
5038.6014    3.4576e-17
5039.6164    3.3946e-17
5040.6314    3.3946e-17
5041.6463    3.4312e-17
5042.6613    3.2461e-17
5043.6763    3.1130e-17
5044.6912    3.2905e-17
5045.7062    3.3379e-17
5046.7211    3.1427e-17
5047.7361    3.1447e-17
5048.7511    3.2143e-17
5049.7660    2.9633e-17
5050.7810    3.0888e-17
5051.7959    3.0481e-17
5052.8109    3.0652e-17
5053.8259    3.0350e-17
5054.8408    3.1730e-17
5055.8558    3.2526e-17
5056.8708    3.2376e-17
5057.8857    3.5420e-17
5058.9007    3.5227e-17
5059.9156    3.2968e-17
5060.9306    3.3319e-17
5061.9456    3.8053e-17
5062.9605    3.2429e-17
5063.9755    3.0407e-17
5064.9905    3.3908e-17
5066.0054    3.4525e-17
5067.0204    3.6577e-17
5068.0353    3.5074e-17
5069.0503    3.2531e-17
5070.0653    3.2615e-17
5071.0802    3.2116e-17
5072.0952    3.2394e-17
5073.1101    3.1468e-17
5074.1251    2.9334e-17
5075.1401    3.2140e-17
5076.1550    3.1711e-17
5077.1700    3.2848e-17
5078.1850    3.1556e-17
5079.1999    2.9561e-17
5080.2149    3.0619e-17
5081.2298    3.2871e-17
5082.2448    3.4872e-17
5083.2598    3.2516e-17
5084.2747    3.0319e-17
5085.2897    3.3461e-17
5086.3047    3.3542e-17
5087.3196    2.9182e-17
5088.3346    2.9886e-17
5089.3495    3.4191e-17
5090.3645    3.3499e-17
5091.3795    3.4601e-17
5092.3944    3.4707e-17
5093.4094    3.5208e-17
5094.4244    3.4709e-17
5095.4393    3.1671e-17
5096.4543    3.2054e-17
5097.4692    3.1522e-17
5098.4842    3.2199e-17
5099.4992    3.3156e-17
5100.5141    3.2732e-17
5101.5291    3.1961e-17
5102.5440    3.2908e-17
5103.5590    3.2918e-17
5104.5740    3.1623e-17
5105.5889    3.1566e-17
5106.6039    3.3447e-17
5107.6189    3.2209e-17
5108.6338    3.1694e-17
5109.6488    3.2092e-17
5110.6637    3.1375e-17
5111.6787    3.0846e-17
5112.6937    2.9842e-17
5113.7086    3.1890e-17
5114.7236    3.1514e-17
5115.7386    3.0155e-17
5116.7535    3.0030e-17
5117.7685    3.1872e-17
5118.7834    3.5280e-17
5119.7984    3.6937e-17
5120.8134    3.3957e-17
5121.8283    3.2765e-17
5122.8433    3.2136e-17
5123.8582    3.0641e-17
5124.8732    3.1829e-17
5125.8882    3.2807e-17
5126.9031    3.3342e-17
5127.9181    3.4122e-17
5128.9331    3.3831e-17
5129.9480    3.2500e-17
5130.9630    2.9652e-17
5131.9779    2.8278e-17
5132.9929    2.8568e-17
5134.0079    3.1345e-17
5135.0228    3.5871e-17
5136.0378    3.3951e-17
5137.0528    3.0832e-17
5138.0677    3.0499e-17
5139.0827    3.3819e-17
5140.0976    3.4204e-17
5141.1126    3.2781e-17
5142.1276    3.2251e-17
5143.1425    3.4044e-17
5144.1575    3.5657e-17
5145.1725    3.5049e-17
5146.1874    3.1379e-17
5147.2024    3.0840e-17
5148.2173    3.0653e-17
5149.2323    3.0021e-17
5150.2473    2.7597e-17
5151.2622    2.8611e-17
5152.2772    3.1179e-17
5153.2921    3.1470e-17
5154.3071    2.8295e-17
5155.3221    2.8608e-17
5156.3370    3.0224e-17
5157.3520    3.0291e-17
5158.3670    3.0805e-17
5159.3819    2.9584e-17
5160.3969    3.1097e-17
5161.4118    3.4297e-17
5162.4268    3.1667e-17
5163.4418    2.9962e-17
5164.4567    3.3002e-17
5165.4717    3.3001e-17
5166.4867    3.2670e-17
5167.5016    3.0749e-17
5168.5166    3.2102e-17
5169.5315    3.2382e-17
5170.5465    3.5188e-17
5171.5615    3.5205e-17
5172.5764    3.0098e-17
5173.5914    3.0079e-17
5174.6064    3.4376e-17
5175.6213    3.4220e-17
5176.6363    3.2350e-17
5177.6512    3.1244e-17
5178.6662    3.0834e-17
5179.6812    3.0184e-17
5180.6961    2.9704e-17
5181.7111    2.9916e-17
5182.7260    3.1985e-17
5183.7410    3.2753e-17
5184.7560    3.0938e-17
5185.7709    3.1007e-17
5186.7859    3.0383e-17
5187.8009    3.1728e-17
5188.8158    3.0124e-17
5189.8308    3.0390e-17
5190.8457    3.1028e-17
5191.8607    2.9829e-17
5192.8757    3.0748e-17
5193.8906    2.9464e-17
5194.9056    3.0169e-17
5195.9206    3.1808e-17
5196.9355    3.2489e-17
5197.9505    3.1266e-17
5198.9654    3.0284e-17
5199.9804    3.0598e-17
5200.9954    3.0472e-17
5202.0103    3.1820e-17
5203.0253    3.1131e-17
5204.0402    3.1360e-17
5205.0552    3.2167e-17
5206.0702    3.0786e-17
5207.0851    3.1943e-17
5208.1001    3.2278e-17
5209.1151    3.3319e-17
5210.1300    3.1015e-17
5211.1450    2.9264e-17
5212.1599    3.0225e-17
5213.1749    3.3152e-17
5214.1899    3.1446e-17
5215.2048    2.9465e-17
5216.2198    3.0221e-17
5217.2348    3.0661e-17
5218.2497    3.1464e-17
5219.2647    3.1554e-17
5220.2796    3.1968e-17
5221.2946    3.2360e-17
5222.3096    3.1510e-17
5223.3245    3.0109e-17
5224.3395    3.1507e-17
5225.3544    3.2343e-17
5226.3694    3.1320e-17
5227.3844    3.2699e-17
5228.3993    3.3809e-17
5229.4143    3.2759e-17
5230.4293    3.1581e-17
5231.4442    3.2065e-17
5232.4592    3.2797e-17
5233.4741    3.1997e-17
5234.4891    3.1150e-17
5235.5041    3.1464e-17
5236.5190    3.2027e-17
5237.5340    3.3093e-17
5238.5490    3.1450e-17
5239.5639    2.8572e-17
5240.5789    2.9193e-17
5241.5938    3.1324e-17
5242.6088    3.2867e-17
5243.6238    3.1936e-17
5244.6387    3.0069e-17
5245.6537    3.0531e-17
5246.6687    2.9789e-17
5247.6836    2.8832e-17
5248.6986    3.0971e-17
5249.7135    3.3413e-17
5250.7285    3.3006e-17
5251.7435    3.4045e-17
5252.7584    3.1174e-17
5253.7734    2.8325e-17
5254.7883    2.9849e-17
5255.8033    3.0442e-17
5256.8183    2.9528e-17
5257.8332    2.8811e-17
5258.8482    3.0503e-17
5259.8632    2.8837e-17
5260.8781    2.7806e-17
5261.8931    3.0043e-17
5262.9080    2.9663e-17
5263.9230    2.8592e-17
5264.9380    2.9891e-17
5265.9529    3.1535e-17
5266.9679    3.0783e-17
5267.9829    3.0545e-17
5268.9978    3.2664e-17
5270.0128    3.3432e-17
5271.0277    3.3879e-17
5272.0427    3.3520e-17
5273.0577    3.0617e-17
5274.0726    2.8344e-17
5275.0876    3.0232e-17
5276.1025    3.4286e-17
5277.1175    3.5173e-17
5278.1325    3.5585e-17
5279.1474    3.3069e-17
5280.1624    2.9575e-17
5281.1774    3.0222e-17
5282.1923    3.1969e-17
5283.2073    3.0746e-17
5284.2222    3.1603e-17
5285.2372    3.1325e-17
5286.2522    3.0435e-17
5287.2671    2.8803e-17
5288.2821    2.8880e-17
5289.2971    2.9916e-17
5290.3120    2.9150e-17
5291.3270    2.9090e-17
5292.3419    2.9866e-17
5293.3569    3.1203e-17
5294.3719    3.1017e-17
5295.3868    3.2071e-17
5296.4018    3.2324e-17
5297.4168    3.0288e-17
5298.4317    3.2097e-17
5299.4467    3.0215e-17
5300.4616    2.8883e-17
5301.4766    3.1520e-17
5302.4916    3.1987e-17
5303.5065    3.1390e-17
5304.5215    3.1857e-17
5305.5364    3.1728e-17
5306.5514    3.1729e-17
5307.5664    3.0561e-17
5308.5813    2.8298e-17
5309.5963    2.8119e-17
5310.6113    3.1627e-17
5311.6262    3.3197e-17
5312.6412    3.3330e-17
5313.6561    3.2640e-17
5314.6711    3.1379e-17
5315.6861    2.9390e-17
5316.7010    2.8432e-17
5317.7160    2.8259e-17
5318.7310    3.0813e-17
5319.7459    3.1129e-17
5320.7609    2.8623e-17
5321.7758    2.9167e-17
5322.7908    3.0692e-17
5323.8058    3.0905e-17
5324.8207    2.9044e-17
5325.8357    2.9058e-17
5326.8507    2.9373e-17
5327.8656    2.8087e-17
5328.8806    3.2191e-17
5329.8955    3.1562e-17
5330.9105    2.8581e-17
5331.9255    2.9833e-17
5332.9404    3.2963e-17
5333.9554    3.2471e-17
5334.9703    3.2684e-17
5335.9853    3.1103e-17
5337.0003    2.9824e-17
5338.0152    2.8924e-17
5339.0302    2.9891e-17
5340.0452    3.2607e-17
5341.0601    3.2989e-17
5342.0751    2.9607e-17
5343.0900    3.1689e-17
5344.1050    3.0274e-17
5345.1200    3.1994e-17
5346.1349    3.2702e-17
5347.1499    3.0979e-17
5348.1649    3.2875e-17
5349.1798    3.2995e-17
5350.1948    2.9913e-17
5351.2097    2.9963e-17
5352.2247    3.0896e-17
5353.2397    3.2595e-17
5354.2546    3.4631e-17
5355.2696    3.2876e-17
5356.2845    3.1503e-17
5357.2995    3.2246e-17
5358.3145    3.2192e-17
5359.3294    3.1731e-17
5360.3444    3.1068e-17
5361.3594    3.1513e-17
5362.3743    3.0737e-17
5363.3893    3.3047e-17
5364.4042    2.9837e-17
5365.4192    3.0074e-17
5366.4342    3.0825e-17
5367.4491    3.3218e-17
5368.4641    3.1356e-17
5369.4791    3.2005e-17
5370.4940    3.0565e-17
5371.5090    3.1500e-17
5372.5239    2.9847e-17
5373.5389    3.0955e-17
5374.5539    3.0986e-17
5375.5688    3.1678e-17
5376.5838    2.7960e-17
5377.5988    3.1148e-17
5378.6137    3.0553e-17
5379.6287    3.0665e-17
5380.6436    3.1078e-17
5381.6586    3.0703e-17
5382.6736    2.9188e-17
5383.6885    2.8070e-17
5384.7035    2.9931e-17
5385.7184    2.8486e-17
5386.7334    2.9482e-17
5387.7484    2.9818e-17
5388.7633    2.8244e-17
5389.7783    2.8492e-17
5390.7933    2.8691e-17
5391.8082    2.7640e-17
5392.8232    3.3165e-17
5393.8381    3.4218e-17
5394.8531    2.8483e-17
5395.8681    3.1704e-17
5396.8830    3.2827e-17
5397.8980    3.3515e-17
5398.9130    2.9793e-17
5399.9279    2.7221e-17
5400.9429    2.6982e-17
5401.9578    2.8157e-17
5402.9728    3.0244e-17
5403.9878    3.2245e-17
5405.0027    2.9280e-17
5406.0177    3.0190e-17
5407.0326    3.3901e-17
5408.0476    3.0528e-17
5409.0626    3.2339e-17
5410.0775    2.8951e-17
5411.0925    3.0938e-17
5412.1075    2.9840e-17
5413.1224    3.0104e-17
5414.1374    3.1418e-17
5415.1523    3.0875e-17
5416.1673    2.9024e-17
5417.1823    2.9816e-17
5418.1972    3.0118e-17
5419.2122    2.9793e-17
5420.2272    3.0215e-17
5421.2421    3.0303e-17
5422.2571    3.0942e-17
5423.2720    3.1448e-17
5424.2870    3.0063e-17
5425.3020    3.0385e-17
5426.3169    3.1133e-17
5427.3319    3.1610e-17
5428.3468    3.0625e-17
5429.3618    3.1336e-17
5430.3768    3.1669e-17
5431.3917    2.9452e-17
5432.4067    2.9236e-17
5433.4217    3.1388e-17
5434.4366    2.9152e-17
5435.4516    3.1248e-17
5436.4665    3.1051e-17
5437.4815    3.0674e-17
5438.4965    3.1443e-17
5439.5114    3.2463e-17
5440.5264    3.2736e-17
5441.5414    3.2891e-17
5442.5563    3.2409e-17
5443.5713    3.2473e-17
5444.5862    3.1177e-17
5445.6012    3.0582e-17
5446.6162    2.9849e-17
5447.6311    2.9924e-17
5448.6461    3.0423e-17
5449.6611    3.1119e-17
5450.6760    2.9490e-17
5451.6910    2.9692e-17
5452.7059    2.9985e-17
5453.7209    3.1897e-17
5454.7359    3.0794e-17
5455.7508    2.9515e-17
5456.7658    3.1289e-17
5457.7807    3.1600e-17
5458.7957    3.1407e-17
5459.8107    3.1912e-17
5460.8256    3.1996e-17
5461.8406    3.0193e-17
5462.8556    3.0152e-17
5463.8705    3.0407e-17
5464.8855    3.1212e-17
5465.9004    2.9152e-17
5466.9154    2.9090e-17
5467.9304    3.0507e-17
5468.9453    3.0382e-17
5469.9603    3.0999e-17
5470.9753    3.1121e-17
5471.9902    3.1000e-17
5473.0052    3.0229e-17
5474.0201    3.0183e-17
5475.0351    3.2844e-17
5476.0501    3.2358e-17
5477.0650    2.8815e-17
5478.0800    2.8476e-17
5479.0949    3.1139e-17
5480.1099    3.1632e-17
5481.1249    3.0373e-17
5482.1398    2.9776e-17
5483.1548    3.0124e-17
5484.1698    3.0806e-17
5485.1847    3.0159e-17
5486.1997    3.0470e-17
5487.2146    3.1373e-17
5488.2296    3.0808e-17
5489.2446    2.9091e-17
5490.2595    2.8791e-17
5491.2745    2.8813e-17
5492.2895    2.8129e-17
5493.3044    2.8602e-17
5494.3194    2.9787e-17
5495.3343    3.0533e-17
5496.3493    2.9296e-17
5497.3643    3.1020e-17
5498.3792    3.1434e-17
5499.3942    3.0272e-17
5500.4092    2.9863e-17
5501.4241    3.1587e-17
5502.4391    3.1933e-17
5503.4540    3.1708e-17
5504.4690    3.1695e-17
5505.4840    3.0887e-17
5506.4989    3.0725e-17
5507.5139    2.9805e-17
5508.5288    2.9448e-17
5509.5438    3.0577e-17
5510.5588    2.9875e-17
5511.5737    2.9539e-17
5512.5887    2.9547e-17
5513.6037    3.0375e-17
5514.6186    3.0093e-17
5515.6336    2.9596e-17
5516.6485    2.7908e-17
5517.6635    2.8111e-17
5518.6785    3.0997e-17
5519.6934    3.1521e-17
5520.7084    3.2208e-17
5521.7234    3.1369e-17
5522.7383    2.9036e-17
5523.7533    3.0856e-17
5524.7682    3.1032e-17
5525.7832    3.0587e-17
5526.7982    3.0504e-17
5527.8131    2.9420e-17
5528.8281    2.9634e-17
5529.8430    2.8837e-17
5530.8580    3.0233e-17
5531.8730    3.1501e-17
5532.8879    3.1608e-17
5533.9029    3.0430e-17
5534.9179    3.0038e-17
5535.9328    2.7959e-17
5536.9478    2.6999e-17
5537.9627    2.9112e-17
5538.9777    3.2002e-17
5539.9927    3.1246e-17
5541.0076    2.7675e-17
5542.0226    2.9777e-17
5543.0376    3.3681e-17
5544.0525    3.0180e-17
5545.0675    2.8980e-17
5546.0824    3.1110e-17
5547.0974    2.9844e-17
5548.1124    2.9871e-17
5549.1273    2.9763e-17
5550.1423    2.8252e-17
5551.1573    3.0329e-17
5552.1722    2.8223e-17
5553.1872    2.9790e-17
5554.2021    2.9099e-17
5555.2171    2.9792e-17
5556.2321    2.8757e-17
5557.2470    2.9727e-17
5558.2620    2.9655e-17
5559.2769    3.0238e-17
5560.2919    3.0259e-17
5561.3069    3.2330e-17
5562.3218    2.9093e-17
5563.3368    3.1823e-17
5564.3518    2.8111e-17
5565.3667    2.9879e-17
5566.3817    2.8745e-17
5567.3966    3.0580e-17
5568.4116    2.9778e-17
5569.4266    3.0003e-17
5570.4415    2.9627e-17
5571.4565    2.9330e-17
5572.4715    2.9665e-17
5573.4864    2.8442e-17
5574.5014    2.6786e-17
5575.5163    6.6434e-17
5576.5313    3.9601e-17
5577.5463    3.4584e-17
5578.5612    3.2586e-17
5579.5762    5.6561e-17
5580.5912    1.5129e-17
5581.6061    3.1583e-17
5582.6211    3.0668e-17
5583.6360    3.0595e-17
5584.6510    2.8813e-17
5585.6660    3.1038e-17
5586.6809    3.0213e-17
5587.6959    3.1304e-17
5588.7108    3.1306e-17
5589.7258    3.1035e-17
5590.7408    2.9896e-17
5591.7557    3.0602e-17
5592.7707    3.0364e-17
5593.7857    2.8995e-17
5594.8006    2.9989e-17
5595.8156    3.1160e-17
5596.8305    3.1189e-17
5597.8455    2.9844e-17
5598.8605    3.0342e-17
5599.8754    3.0770e-17
5600.8904    2.9979e-17
5601.9054    2.9022e-17
5602.9203    2.9727e-17
5603.9353    3.0051e-17
5604.9502    3.0147e-17
5605.9652    3.1963e-17
5606.9802    3.1237e-17
5607.9951    2.7701e-17
5609.0101    2.8057e-17
5610.0250    3.0731e-17
5611.0400    3.1644e-17
5612.0550    3.1738e-17
5613.0699    3.0223e-17
5614.0849    2.8981e-17
5615.0999    2.9029e-17
5616.1148    3.0668e-17
5617.1298    2.9984e-17
5618.1447    2.8846e-17
5619.1597    3.1214e-17
5620.1747    3.1569e-17
5621.1896    2.8630e-17
5622.2046    2.8743e-17
5623.2196    3.0315e-17
5624.2345    3.0584e-17
5625.2495    2.9507e-17
5626.2644    2.9839e-17
5627.2794    3.0761e-17
5628.2944    3.0154e-17
5629.3093    2.8859e-17
5630.3243    2.9309e-17
5631.3392    3.0269e-17
5632.3542    3.0188e-17
5633.3692    2.9333e-17
5634.3841    3.0103e-17
5635.3991    2.9335e-17
5636.4141    2.8811e-17
5637.4290    2.9278e-17
5638.4440    2.9168e-17
5639.4589    2.9863e-17
5640.4739    2.9535e-17
5641.4889    2.8339e-17
5642.5038    2.7516e-17
5643.5188    2.9499e-17
5644.5338    3.0733e-17
5645.5487    2.9834e-17
5646.5637    2.9326e-17
5647.5786    2.9537e-17
5648.5936    3.0562e-17
5649.6086    3.0580e-17
5650.6235    3.0240e-17
5651.6385    3.0346e-17
5652.6535    2.8584e-17
5653.6684    2.9696e-17
5654.6834    2.9185e-17
5655.6983    2.6983e-17
5656.7133    3.0041e-17
5657.7283    3.0771e-17
5658.7432    3.0555e-17
5659.7582    3.0331e-17
5660.7731    2.9110e-17
5661.7881    2.8484e-17
5662.8031    3.0108e-17
5663.8180    2.8797e-17
5664.8330    3.1205e-17
5665.8480    2.9649e-17
5666.8629    2.9677e-17
5667.8779    2.9948e-17
5668.8928    2.9237e-17
5669.9078    2.9217e-17
5670.9228    2.9781e-17
5671.9377    2.9511e-17
5672.9527    3.0118e-17
5673.9677    3.0212e-17
5674.9826    2.9280e-17
5675.9976    3.0276e-17
5677.0125    3.0113e-17
5678.0275    2.8628e-17
5679.0425    2.9505e-17
5680.0574    2.8820e-17
5681.0724    2.9592e-17
5682.0873    2.7293e-17
5683.1023    2.9044e-17
5684.1173    2.9942e-17
5685.1322    3.1499e-17
5686.1472    2.9913e-17
5687.1622    3.3464e-17
5688.1771    3.0607e-17
5689.1921    2.8084e-17
5690.2070    2.8439e-17
5691.2220    2.9026e-17
5692.2370    3.0662e-17
5693.2519    3.1698e-17
5694.2669    3.0614e-17
5695.2819    2.9817e-17
5696.2968    2.9864e-17
5697.3118    2.8026e-17
5698.3267    2.8417e-17
5699.3417    2.8492e-17
5700.3567    3.1089e-17
5701.3716    3.0947e-17
5702.3866    3.0453e-17
5703.4016    2.8259e-17
5704.4165    2.7890e-17
5705.4315    2.7149e-17
5706.4464    3.0115e-17
5707.4614    2.9785e-17
5708.4764    2.8380e-17
5709.4913    2.9475e-17
5710.5063    3.0290e-17
5711.5212    2.9104e-17
5712.5362    2.8254e-17
5713.5512    2.8639e-17
5714.5661    2.9834e-17
5715.5811    2.8772e-17
5716.5961    2.9235e-17
5717.6110    2.8355e-17
5718.6260    2.8742e-17
5719.6409    2.7244e-17
5720.6559    2.7107e-17
5721.6709    2.8048e-17
5722.6858    2.7293e-17
5723.7008    2.6624e-17
5724.7158    2.7631e-17
5725.7307    2.7434e-17
5726.7457    2.6535e-17
5727.7606    2.6779e-17
5728.7756    2.7660e-17
5729.7906    2.9342e-17
5730.8055    2.9444e-17
5731.8205    2.8302e-17
5732.8354    2.7549e-17
5733.8504    2.8614e-17
5734.8654    2.9455e-17
5735.8803    2.9670e-17
5736.8953    2.8783e-17
5737.9103    2.6221e-17
5738.9252    2.6304e-17
5739.9402    2.8646e-17
5740.9551    2.9643e-17
5741.9701    2.8847e-17
5742.9851    2.8072e-17
5744.0000    2.9151e-17
5745.0150    3.0032e-17
5746.0300    2.9469e-17
5747.0449    2.8689e-17
5748.0599    2.8410e-17
5749.0748    2.9185e-17
5750.0898    2.8357e-17
5751.1048    2.7474e-17
5752.1197    2.7682e-17
5753.1347    2.8505e-17
5754.1497    2.8145e-17
5755.1646    2.9049e-17
5756.1796    2.8746e-17
5757.1945    2.8740e-17
5758.2095    2.8964e-17
5759.2245    2.7844e-17
5760.2394    2.8607e-17
5761.2544    2.8541e-17
5762.2693    2.7513e-17
5763.2843    2.9501e-17
5764.2993    2.9238e-17
5765.3142    2.8717e-17
5766.3292    2.9861e-17
5767.3442    3.2006e-17
5768.3591    3.1154e-17
5769.3741    2.9940e-17
5770.3890    3.0389e-17
5771.4040    2.8571e-17
5772.4190    3.1893e-17
5773.4339    3.1986e-17
5774.4489    3.2646e-17
5775.4639    3.1040e-17
5776.4788    3.1917e-17
5777.4938    3.2047e-17
5778.5087    3.2271e-17
5779.5237    2.9709e-17
5780.5387    3.2017e-17
5781.5536    2.8858e-17
5782.5686    2.8512e-17
5783.5835    3.3545e-17
5784.5985    3.1832e-17
5785.6135    3.2548e-17
5786.6284    3.2194e-17
5787.6434    3.4018e-17
5788.6584    3.0491e-17
5789.6733    2.9985e-17
5790.6883    2.8256e-17
5791.7032    3.0513e-17
5792.7182    2.9682e-17
5793.7332    3.0577e-17
5794.7481    3.1301e-17
5795.7631    2.8478e-17
5796.7781    2.9844e-17
5797.7930    3.0271e-17
5798.8080    3.2379e-17
5799.8229    3.0881e-17
5800.8379    2.8219e-17
5801.8529    2.8543e-17
5802.8678    3.0203e-17
5803.8828    3.2522e-17
5804.8978    2.8368e-17
5805.9127    3.3318e-17
5806.9277    2.8999e-17
5807.9426    2.9239e-17
5808.9576    3.0729e-17
5809.9726    3.2197e-17
5810.9875    2.9593e-17
5812.0025    2.9552e-17
5813.0174    2.9961e-17
5814.0324    3.0763e-17
5815.0474    3.1262e-17
5816.0623    3.2907e-17
5817.0773    2.7834e-17
5818.0923    2.9488e-17
5819.1072    3.1316e-17
5820.1222    3.0684e-17
5821.1371    3.0571e-17
5822.1521    3.1685e-17
5823.1671    3.1789e-17
5824.1820    3.0761e-17
5825.1970    3.0454e-17
5826.2120    3.1519e-17
5827.2269    3.0989e-17
5828.2419    3.1945e-17
5829.2568    3.1620e-17
5830.2718    3.0553e-17
5831.2868    2.9824e-17
5832.3017    2.9508e-17
5833.3167    2.9087e-17
5834.3317    2.8839e-17
5835.3466    2.9252e-17
5836.3616    2.9903e-17
5837.3765    3.0321e-17
5838.3915    2.9332e-17
5839.4065    2.7950e-17
5840.4214    2.8520e-17
5841.4364    2.9122e-17
5842.4513    2.8322e-17
5843.4663    2.8997e-17
5844.4813    2.9234e-17
5845.4962    2.8861e-17
5846.5112    2.9566e-17
5847.5262    2.9564e-17
5848.5411    3.0665e-17
5849.5561    2.9960e-17
5850.5710    2.9472e-17
5851.5860    3.2164e-17
5852.6010    3.0875e-17
5853.6159    3.0901e-17
5854.6309    3.0695e-17
5855.6459    2.9808e-17
5856.6608    2.8732e-17
5857.6758    2.8642e-17
5858.6907    3.0161e-17
5859.7057    3.0480e-17
5860.7207    2.7471e-17
5861.7356    2.8568e-17
5862.7506    3.0148e-17
5863.7655    3.1319e-17
5864.7805    3.0031e-17
5865.7955    2.9785e-17
5866.8104    2.9918e-17
5867.8254    3.3060e-17
5868.8404    3.1938e-17
5869.8553    3.1370e-17
5870.8703    3.0299e-17
5871.8852    3.1356e-17
5872.9002    2.9808e-17
5873.9152    3.1192e-17
5874.9301    3.1611e-17
5875.9451    2.9678e-17
5876.9601    2.8951e-17
5877.9750    3.3005e-17
5878.9900    3.1061e-17
5880.0049    2.9433e-17
5881.0199    2.8738e-17
5882.0349    2.8836e-17
5883.0498    3.1464e-17
5884.0648    3.0450e-17
5885.0797    3.0651e-17
5886.0947    2.7849e-17
5887.1097    2.6663e-17
5888.1246    3.3676e-17
5889.1396    2.8206e-17
5890.1546    3.0504e-17
5891.1695    3.0511e-17
5892.1845    3.1070e-17
5893.1994    2.5575e-17
5894.2144    2.9499e-17
5895.2294    2.8615e-17
5896.2443    2.8291e-17
5897.2593    2.9190e-17
5898.2743    2.9415e-17
5899.2892    2.9414e-17
5900.3042    3.0609e-17
5901.3191    3.0282e-17
5902.3341    2.8565e-17
5903.3491    2.9793e-17
5904.3640    2.9645e-17
5905.3790    2.8259e-17
5906.3940    2.9038e-17
5907.4089    3.0845e-17
5908.4239    3.0426e-17
5909.4388    2.9351e-17
5910.4538    2.7608e-17
5911.4688    2.7447e-17
5912.4837    2.9611e-17
5913.4987    2.9057e-17
5914.5136    2.7790e-17
5915.5286    2.8655e-17
5916.5436    2.8980e-17
5917.5585    2.9936e-17
5918.5735    3.0468e-17
5919.5885    3.0618e-17
5920.6034    2.9737e-17
5921.6184    2.9101e-17
5922.6333    2.8182e-17
5923.6483    2.8129e-17
5924.6633    2.8668e-17
5925.6782    2.9083e-17
5926.6932    2.9882e-17
5927.7082    2.9926e-17
5928.7231    2.9510e-17
5929.7381    2.8876e-17
5930.7530    2.7385e-17
5931.7680    2.7933e-17
5932.7830    2.9737e-17
5933.7979    2.9183e-17
5934.8129    2.7918e-17
5935.8278    2.7270e-17
5936.8428    2.9051e-17
5937.8578    2.9326e-17
5938.8727    3.0316e-17
5939.8877    2.9876e-17
5940.9027    2.8305e-17
5941.9176    2.9264e-17
5942.9326    2.8875e-17
5943.9475    2.8701e-17
5944.9625    2.7579e-17
5945.9775    2.8857e-17
5946.9924    2.8200e-17
5948.0074    2.9116e-17
5949.0224    2.8501e-17
5950.0373    2.8429e-17
5951.0523    2.8718e-17
5952.0672    2.7999e-17
5953.0822    2.6520e-17
5954.0972    2.8219e-17
5955.1121    2.8049e-17
5956.1271    2.9526e-17
5957.1421    2.7722e-17
5958.1570    2.7683e-17
5959.1720    2.8250e-17
5960.1869    2.7356e-17
5961.2019    2.7652e-17
5962.2169    2.6030e-17
5963.2318    2.7858e-17
5964.2468    2.7798e-17
5965.2617    2.7002e-17
5966.2767    2.7208e-17
5967.2917    2.8941e-17
5968.3066    2.9124e-17
5969.3216    2.9705e-17
5970.3366    2.7885e-17
5971.3515    2.6566e-17
5972.3665    2.9416e-17
5973.3814    2.9026e-17
5974.3964    2.8949e-17
5975.4114    2.9402e-17
5976.4263    2.8296e-17
5977.4413    2.6651e-17
5978.4563    2.7537e-17
5979.4712    2.9316e-17
5980.4862    2.8934e-17
5981.5011    2.8399e-17
5982.5161    2.8600e-17
5983.5311    2.7641e-17
5984.5460    2.8977e-17
5985.5610    2.7109e-17
5986.5760    2.6218e-17
5987.5909    2.6584e-17
5988.6059    2.7136e-17
5989.6208    2.7924e-17
5990.6358    2.9387e-17
5991.6508    2.8546e-17
5992.6657    2.8597e-17
5993.6807    2.9083e-17
5994.6956    2.8635e-17
5995.7106    2.7615e-17
5996.7256    2.5838e-17
5997.7405    2.6976e-17
5998.7555    2.8168e-17
5999.7705    2.6856e-17
6000.7854    2.7827e-17
6001.8004    2.8518e-17
6002.8153    2.8329e-17
6003.8303    2.8045e-17
6004.8453    2.6927e-17
6005.8602    2.7281e-17
6006.8752    2.8065e-17
6007.8902    2.9242e-17
6008.9051    2.7933e-17
6009.9201    2.6067e-17
6010.9350    2.7798e-17
6011.9500    2.8630e-17
6012.9650    2.8000e-17
6013.9799    2.6985e-17
6014.9949    2.6149e-17
6016.0098    2.6047e-17
6017.0248    2.7914e-17
6018.0398    2.8145e-17
6019.0547    2.7632e-17
6020.0697    2.7792e-17
6021.0847    2.6628e-17
6022.0996    2.5714e-17
6023.1146    2.5736e-17
6024.1295    2.6401e-17
6025.1445    2.7111e-17
6026.1595    2.7258e-17
6027.1744    2.6905e-17
6028.1894    2.6451e-17
6029.2044    2.5763e-17
6030.2193    2.6086e-17
6031.2343    2.5729e-17
6032.2492    2.6211e-17
6033.2642    2.8014e-17
6034.2792    2.7335e-17
6035.2941    2.6967e-17
6036.3091    2.6071e-17
6037.3240    2.5580e-17
6038.3390    2.7678e-17
6039.3540    2.8394e-17
6040.3689    2.7333e-17
6041.3839    2.8714e-17
6042.3989    2.9702e-17
6043.4138    2.8656e-17
6044.4288    2.7897e-17
6045.4437    2.7010e-17
6046.4587    2.7585e-17
6047.4737    2.6648e-17
6048.4886    2.6278e-17
6049.5036    2.6738e-17
6050.5186    2.6980e-17
6051.5335    2.6966e-17
6052.5485    2.7759e-17
6053.5634    2.7670e-17
6054.5784    2.6825e-17
6055.5934    2.7298e-17
6056.6083    2.7610e-17
6057.6233    2.8227e-17
6058.6383    2.7905e-17
6059.6532    2.6451e-17
6060.6682    2.6513e-17
6061.6831    2.7053e-17
6062.6981    2.7780e-17
6063.7131    2.8484e-17
6064.7280    2.8612e-17
6065.7430    2.7240e-17
6066.7579    2.6905e-17
6067.7729    2.6697e-17
6068.7879    2.6756e-17
6069.8028    2.7905e-17
6070.8178    2.8002e-17
6071.8328    2.7565e-17
6072.8477    2.7549e-17
6073.8627    2.6360e-17
6074.8776    2.6144e-17
6075.8926    2.7748e-17
6076.9076    2.7451e-17
6077.9225    2.7051e-17
6078.9375    2.8630e-17
6079.9525    2.8294e-17
6080.9674    2.7085e-17
6081.9824    2.6491e-17
6082.9973    2.6050e-17
6084.0123    2.7090e-17
6085.0273    2.6338e-17
6086.0422    2.5666e-17
6087.0572    2.6539e-17
6088.0721    2.6679e-17
6089.0871    2.7314e-17
6090.1021    2.7734e-17
6091.1170    2.8335e-17
6092.1320    2.8042e-17
6093.1470    2.8748e-17
6094.1619    2.8544e-17
6095.1769    2.7668e-17
6096.1918    2.6303e-17
6097.2068    2.6067e-17
6098.2218    2.4820e-17
6099.2367    2.7348e-17
6100.2517    2.7615e-17
6101.2667    2.7194e-17
6102.2816    2.7255e-17
6103.2966    2.8350e-17
6104.3115    2.8123e-17
6105.3265    2.4888e-17
6106.3415    2.4856e-17
6107.3564    2.7065e-17
6108.3714    2.6633e-17
6109.3864    2.7620e-17
6110.4013    2.7559e-17
6111.4163    2.6252e-17
6112.4312    2.6933e-17
6113.4462    2.7523e-17
6114.4612    2.7564e-17
6115.4761    2.6960e-17
6116.4911    2.5098e-17
6117.5060    2.6713e-17
6118.5210    2.8547e-17
6119.5360    2.7422e-17
6120.5509    2.7286e-17
6121.5659    2.7705e-17
6122.5809    2.6891e-17
6123.5958    2.6779e-17
6124.6108    2.6459e-17
6125.6257    2.6925e-17
6126.6407    2.4861e-17
6127.6557    2.6224e-17
6128.6706    2.6705e-17
6129.6856    2.7016e-17
6130.7006    2.6607e-17
6131.7155    2.6239e-17
6132.7305    2.6907e-17
6133.7454    2.6281e-17
6134.7604    2.5967e-17
6135.7754    2.7323e-17
6136.7903    2.7769e-17
6137.8053    2.7363e-17
6138.8202    2.7140e-17
6139.8352    2.7423e-17
6140.8502    2.7145e-17
6141.8651    2.6980e-17
6142.8801    2.7288e-17
6143.8951    2.7112e-17
6144.9100    2.6965e-17
6145.9250    2.7364e-17
6146.9399    2.7157e-17
6147.9549    2.7687e-17
6148.9699    2.7686e-17
6149.9848    2.5193e-17
6150.9998    2.5763e-17
6152.0148    2.6953e-17
6153.0297    2.7052e-17
6154.0447    2.6770e-17
6155.0596    2.5471e-17
6156.0746    2.5716e-17
6157.0896    2.5890e-17
6158.1045    2.6440e-17
6159.1195    2.4733e-17
6160.1345    2.6279e-17
6161.1494    2.6810e-17
6162.1644    2.6559e-17
6163.1793    2.7300e-17
6164.1943    2.5865e-17
6165.2093    2.7213e-17
6166.2242    2.7161e-17
6167.2392    2.7690e-17
6168.2541    2.6544e-17
6169.2691    2.4860e-17
6170.2841    2.6102e-17
6171.2990    2.6398e-17
6172.3140    2.7824e-17
6173.3290    2.5069e-17
6174.3439    2.6787e-17
6175.3589    2.8025e-17
6176.3738    2.6586e-17
6177.3888    2.5657e-17
6178.4038    2.4673e-17
6179.4187    2.6495e-17
6180.4337    2.6305e-17
6181.4487    2.7066e-17
6182.4636    2.7710e-17
6183.4786    2.7556e-17
6184.4935    2.7550e-17
6185.5085    2.6894e-17
6186.5235    2.6114e-17
6187.5384    2.7727e-17
6188.5534    2.8914e-17
6189.5683    2.7563e-17
6190.5833    2.6703e-17
6191.5983    2.5998e-17
6192.6132    2.6583e-17
6193.6282    2.6908e-17
6194.6432    2.6299e-17
6195.6581    2.6563e-17
6196.6731    2.7013e-17
6197.6880    2.7759e-17
6198.7030    2.6653e-17
6199.7180    2.5896e-17
6200.7329    2.5987e-17
6201.7479    2.6331e-17
6202.7629    2.5573e-17
6203.7778    2.6059e-17
6204.7928    2.7430e-17
6205.8077    2.7694e-17
6206.8227    2.6344e-17
6207.8377    2.5468e-17
6208.8526    2.6412e-17
6209.8676    2.6196e-17
6210.8826    2.6156e-17
6211.8975    2.5942e-17
6212.9125    2.5328e-17
6213.9274    2.5378e-17
6214.9424    2.6181e-17
6215.9574    2.7383e-17
6216.9723    2.6850e-17
6217.9873    2.5965e-17
6219.0022    2.4545e-17
6220.0172    2.5226e-17
6221.0322    2.5895e-17
6222.0471    2.6575e-17
6223.0621    2.6765e-17
6224.0771    2.6391e-17
6225.0920    2.6447e-17
6226.1070    2.5358e-17
6227.1219    2.4878e-17
6228.1369    2.5798e-17
6229.1519    2.5934e-17
6230.1668    2.5665e-17
6231.1818    2.5855e-17
6232.1968    2.5811e-17
6233.2117    2.5243e-17
6234.2267    2.6337e-17
6235.2416    2.6321e-17
6236.2566    2.4468e-17
6237.2716    2.4635e-17
6238.2865    2.7247e-17
6239.3015    2.6788e-17
6240.3165    2.5164e-17
6241.3314    2.6134e-17
6242.3464    2.4464e-17
6243.3613    2.4718e-17
6244.3763    2.5224e-17
6245.3913    2.5813e-17
6246.4062    2.5502e-17
6247.4212    2.6222e-17
6248.4361    2.5660e-17
6249.4511    2.7082e-17
6250.4661    2.6605e-17
6251.4810    2.5100e-17
6252.4960    2.5837e-17
6253.5110    2.6352e-17
6254.5259    2.7572e-17
6255.5409    2.7318e-17
6256.5558    2.5125e-17
6257.5708    2.5843e-17
6258.5858    2.5642e-17
6259.6007    2.5501e-17
6260.6157    2.5931e-17
6261.6307    2.6475e-17
6262.6456    2.6074e-17
6263.6606    2.6085e-17
6264.6755    2.5508e-17
6265.6905    2.5628e-17
6266.7055    2.5430e-17
6267.7204    2.4617e-17
6268.7354    2.5622e-17
6269.7503    2.5702e-17
6270.7653    2.5483e-17
6271.7803    2.5554e-17
6272.7952    2.5756e-17
6273.8102    2.5342e-17
6274.8252    2.4585e-17
6275.8401    2.4408e-17
6276.8551    2.4070e-17
6277.8700    2.3454e-17
6278.8850    2.3932e-17
6279.9000    2.5134e-17
6280.9149    2.4626e-17
6281.9299    2.5183e-17
6282.9449    2.6595e-17
6283.9598    2.4331e-17
6284.9748    2.5366e-17
6285.9897    2.7167e-17
6287.0047    2.6919e-17
6288.0197    2.5105e-17
6289.0346    2.6087e-17
6290.0496    2.5897e-17
6291.0645    2.4162e-17
6292.0795    2.5606e-17
6293.0945    2.6376e-17
6294.1094    2.3271e-17
6295.1244    2.4578e-17
6296.1394    2.5550e-17
6297.1543    2.2169e-17
6298.1693    2.3911e-17
6299.1842    2.7579e-17
6300.1992    2.6546e-17
6301.2142    2.3050e-17
6302.2291    2.9504e-17
6303.2441    2.6041e-17
6304.2591    2.5750e-17
6305.2740    2.5307e-17
6306.2890    2.5978e-17
6307.3039    2.5674e-17
6308.3189    2.5263e-17
6309.3339    2.5580e-17
6310.3488    2.6044e-17
6311.3638    2.6934e-17
6312.3788    2.6230e-17
6313.3937    2.4966e-17
6314.4087    2.3995e-17
6315.4236    2.4406e-17
6316.4386    2.3866e-17
6317.4536    2.3452e-17
6318.4685    2.5431e-17
6319.4835    2.5551e-17
6320.4984    2.5511e-17
6321.5134    2.5344e-17
6322.5284    2.5209e-17
6323.5433    2.5600e-17
6324.5583    2.5613e-17
6325.5733    2.5544e-17
6326.5882    2.5267e-17
6327.6032    2.4555e-17
6328.6181    2.4965e-17
6329.6331    2.3823e-17
6330.6481    2.5392e-17
6331.6630    2.5751e-17
6332.6780    2.5504e-17
6333.6930    2.5715e-17
6334.7079    2.5247e-17
6335.7229    2.5704e-17
6336.7378    2.5424e-17
6337.7528    2.5532e-17
6338.7678    2.4788e-17
6339.7827    2.3953e-17
6340.7977    2.4982e-17
6341.8126    2.5247e-17
6342.8276    2.4342e-17
6343.8426    2.6164e-17
6344.8575    2.5974e-17
6345.8725    2.4891e-17
6346.8875    2.4708e-17
6347.9024    2.6299e-17
6348.9174    2.3055e-17
6349.9323    2.5774e-17
6350.9473    2.5865e-17
6351.9623    2.5964e-17
6352.9772    2.6949e-17
6353.9922    2.5201e-17
6355.0072    2.5182e-17
6356.0221    2.5445e-17
6357.0371    2.5291e-17
6358.0520    2.6358e-17
6359.0670    2.5098e-17
6360.0820    2.4043e-17
6361.0969    2.4602e-17
6362.1119    2.5734e-17
6363.1269    2.5530e-17
6364.1418    2.5631e-17
6365.1568    2.6472e-17
6366.1717    2.6445e-17
6367.1867    2.5394e-17
6368.2017    2.5762e-17
6369.2166    2.5365e-17
6370.2316    2.5191e-17
6371.2465    2.4157e-17
6372.2615    2.4463e-17
6373.2765    2.5245e-17
6374.2914    2.4467e-17
6375.3064    2.4068e-17
6376.3214    2.5586e-17
6377.3363    2.5486e-17
6378.3513    2.4294e-17
6379.3662    2.4346e-17
6380.3812    2.5397e-17
6381.3962    2.4788e-17
6382.4111    2.4624e-17
6383.4261    2.5793e-17
6384.4411    2.5929e-17
6385.4560    2.4924e-17
6386.4710    2.4947e-17
6387.4859    2.4563e-17
6388.5009    2.4728e-17
6389.5159    2.6629e-17
6390.5308    2.5174e-17
6391.5458    2.4578e-17
6392.5607    2.4285e-17
6393.5757    2.4554e-17
6394.5907    2.3742e-17
6395.6056    2.3949e-17
6396.6206    2.3038e-17
6397.6356    2.3101e-17
6398.6505    2.4244e-17
6399.6655    2.4039e-17
6400.6804    2.5942e-17
6401.6954    2.5830e-17
6402.7104    2.5324e-17
6403.7253    2.5614e-17
6404.7403    2.4558e-17
6405.7553    2.3856e-17
6406.7702    2.3307e-17
6407.7852    2.6246e-17
6408.8001    2.4839e-17
6409.8151    2.4943e-17
6410.8301    2.5364e-17
6411.8450    2.5220e-17
6412.8600    2.2791e-17
6413.8750    2.5053e-17
6414.8899    2.6401e-17
6415.9049    2.4924e-17
6416.9198    2.5585e-17
6417.9348    2.4294e-17
6418.9498    2.3551e-17
6419.9647    2.3757e-17
6420.9797    2.4305e-17
6421.9946    2.4862e-17
6423.0096    2.5670e-17
6424.0246    2.4023e-17
6425.0395    2.3744e-17
6426.0545    2.3935e-17
6427.0695    2.3436e-17
6428.0844    2.4264e-17
6429.0994    2.4903e-17
6430.1143    2.5214e-17
6431.1293    2.5468e-17
6432.1443    2.4346e-17
6433.1592    2.3880e-17
6434.1742    2.4927e-17
6435.1892    2.4657e-17
6436.2041    2.3991e-17
6437.2191    2.4828e-17
6438.2340    2.5083e-17
6439.2490    2.4819e-17
6440.2640    2.4076e-17
6441.2789    2.5264e-17
6442.2939    2.5592e-17
6443.3088    2.5261e-17
6444.3238    2.5267e-17
6445.3388    2.4552e-17
6446.3537    2.4308e-17
6447.3687    2.3685e-17
6448.3837    2.5186e-17
6449.3986    2.5234e-17
6450.4136    2.4937e-17
6451.4285    2.4518e-17
6452.4435    2.4944e-17
6453.4585    2.3990e-17
6454.4734    2.2463e-17
6455.4884    2.4441e-17
6456.5034    2.3281e-17
6457.5183    2.3337e-17
6458.5333    2.5181e-17
6459.5482    2.5127e-17
6460.5632    2.5288e-17
6461.5782    2.4390e-17
6462.5931    2.4491e-17
6463.6081    2.3439e-17
6464.6231    2.3374e-17
6465.6380    2.5285e-17
6466.6530    2.5327e-17
6467.6679    2.4087e-17
6468.6829    2.4253e-17
6469.6979    2.5143e-17
6470.7128    2.5347e-17
6471.7278    2.6638e-17
6472.7427    2.6181e-17
6473.7577    2.5599e-17
6474.7727    2.4814e-17
6475.7876    2.4518e-17
6476.8026    2.3687e-17
6477.8176    2.4759e-17
6478.8325    2.4204e-17
6479.8475    2.3998e-17
6480.8624    2.5059e-17
6481.8774    2.5025e-17
6482.8924    2.5212e-17
6483.9073    2.5117e-17
6484.9223    2.5276e-17
6485.9373    2.4456e-17
6486.9522    2.4079e-17
6487.9672    2.4758e-17
6488.9821    2.4789e-17
6489.9971    2.5487e-17
6491.0121    2.4576e-17
6492.0270    2.3729e-17
6493.0420    2.4511e-17
6494.0570    2.5337e-17
6495.0719    2.3481e-17
6496.0869    2.2597e-17
6497.1018    2.3479e-17
6498.1168    2.4175e-17
6499.1318    2.4801e-17
6500.1467    2.5302e-17
6501.1617    2.5008e-17
6502.1766    2.3993e-17
6503.1916    2.3500e-17
6504.2066    2.4132e-17
6505.2215    2.4758e-17
6506.2365    2.3996e-17
6507.2515    2.4323e-17
6508.2664    2.4804e-17
6509.2814    2.3480e-17
6510.2963    2.4132e-17
6511.3113    2.3449e-17
6512.3263    2.3243e-17
6513.3412    2.5340e-17
6514.3562    2.4537e-17
6515.3712    2.3690e-17
6516.3861    2.4815e-17
6517.4011    2.4739e-17
6518.4160    2.4986e-17
6519.4310    2.4589e-17
6520.4460    2.4017e-17
6521.4609    2.4369e-17
6522.4759    2.5003e-17
6523.4908    2.4699e-17
6524.5058    2.5583e-17
6525.5208    2.5181e-17
6526.5357    2.5164e-17
6527.5507    2.4320e-17
6528.5657    2.4278e-17
6529.5806    2.4598e-17
6530.5956    2.4366e-17
6531.6105    2.3894e-17
6532.6255    2.4726e-17
6533.6405    2.5931e-17
6534.6554    2.5832e-17
6535.6704    2.4595e-17
6536.6854    2.5230e-17
6537.7003    2.4915e-17
6538.7153    2.4678e-17
6539.7302    2.4218e-17
6540.7452    2.3691e-17
6541.7602    2.3960e-17
6542.7751    2.4538e-17
6543.7901    2.5239e-17
6544.8050    2.4271e-17
6545.8200    2.3034e-17
6546.8350    2.3469e-17
6547.8499    2.5232e-17
6548.8649    2.5133e-17
6549.8799    2.5074e-17
6550.8948    2.3347e-17
6551.9098    2.4961e-17
6552.9247    2.4955e-17
6553.9397    2.4443e-17
6554.9547    2.4028e-17
6555.9696    2.4795e-17
6556.9846    2.5621e-17
6557.9996    2.5350e-17
6559.0145    2.4163e-17
6560.0295    2.4435e-17
6561.0444    2.3840e-17
6562.0594    2.4228e-17
6563.0744    2.4592e-17
6564.0893    2.6130e-17
6565.1043    2.4545e-17
6566.1193    2.5065e-17
6567.1342    2.6199e-17
6568.1492    2.7161e-17
6569.1641    2.5178e-17
6570.1791    2.5051e-17
6571.1941    2.5907e-17
6572.2090    2.5537e-17
6573.2240    2.5409e-17
6574.2389    2.3921e-17
6575.2539    2.4792e-17
6576.2689    2.5657e-17
6577.2838    2.6163e-17
6578.2988    2.6585e-17
6579.3138    2.6308e-17
6580.3287    2.5492e-17
6581.3437    2.6282e-17
6582.3586    2.5583e-17
6583.3736    2.4518e-17
6584.3886    2.4632e-17
6585.4035    2.5454e-17
6586.4185    2.5465e-17
6587.4335    2.5108e-17
6588.4484    2.4723e-17
6589.4634    2.5173e-17
6590.4783    2.4824e-17
6591.4933    2.4802e-17
6592.5083    2.5467e-17
6593.5232    2.4137e-17
6594.5382    2.4948e-17
6595.5531    2.5749e-17
6596.5681    2.3974e-17
6597.5831    2.4012e-17
6598.5980    2.4629e-17
6599.6130    2.4908e-17
6600.6280    2.4199e-17
6601.6429    2.4437e-17
6602.6579    2.5068e-17
6603.6728    2.4881e-17
6604.6878    2.5030e-17
6605.7028    2.4822e-17
6606.7177    2.5233e-17
6607.7327    2.2694e-17
6608.7477    2.4602e-17
6609.7626    2.3883e-17
6610.7776    2.4162e-17
6611.7925    2.4023e-17
6612.8075    2.4184e-17
6613.8225    2.3919e-17
6614.8374    2.4911e-17
6615.8524    2.4023e-17
6616.8674    2.4138e-17
6617.8823    2.3712e-17
6618.8973    2.4850e-17
6619.9122    2.5179e-17
6620.9272    2.4330e-17
6621.9422    2.4123e-17
6622.9571    2.3458e-17
6623.9721    2.3171e-17
6624.9870    2.3490e-17
6626.0020    2.3899e-17
6627.0170    2.4025e-17
6628.0319    2.4912e-17
6629.0469    2.4628e-17
6630.0619    2.4427e-17
6631.0768    2.4620e-17
6632.0918    2.3853e-17
6633.1067    2.5180e-17
6634.1217    2.5216e-17
6635.1367    2.3495e-17
6636.1516    2.3938e-17
6637.1666    2.4608e-17
6638.1816    2.4143e-17
6639.1965    2.3956e-17
6640.2115    2.4123e-17
6641.2264    2.4261e-17
6642.2414    2.3217e-17
6643.2564    2.3105e-17
6644.2713    2.3265e-17
6645.2863    2.2884e-17
6646.3012    2.2950e-17
6647.3162    2.2521e-17
6648.3312    2.3629e-17
6649.3461    2.3015e-17
6650.3611    2.3278e-17
6651.3761    2.4472e-17
6652.3910    2.5423e-17
6653.4060    2.3577e-17
6654.4209    2.4180e-17
6655.4359    2.4223e-17
6656.4509    2.4429e-17
6657.4658    2.4031e-17
6658.4808    2.3466e-17
6659.4958    2.4238e-17
6660.5107    2.4916e-17
6661.5257    2.3652e-17
6662.5406    2.3712e-17
6663.5556    2.4277e-17
6664.5706    2.3113e-17
6665.5855    2.3113e-17
6666.6005    2.4791e-17
6667.6155    2.4880e-17
6668.6304    2.4422e-17
6669.6454    2.4031e-17
6670.6603    2.3527e-17
6671.6753    2.3416e-17
6672.6903    2.4076e-17
6673.7052    2.4170e-17
6674.7202    2.3932e-17
6675.7351    2.4578e-17
6676.7501    2.4656e-17
6677.7651    2.4717e-17
6678.7800    2.5550e-17
6679.7950    2.4724e-17
6680.8100    2.3939e-17
6681.8249    2.3086e-17
6682.8399    2.3481e-17
6683.8548    2.4902e-17
6684.8698    2.5249e-17
6685.8848    2.4256e-17
6686.8997    2.3120e-17
6687.9147    2.4330e-17
6688.9297    2.3763e-17
6689.9446    2.3255e-17
6690.9596    2.4428e-17
6691.9745    2.5846e-17
6692.9895    2.5811e-17
6694.0045    2.6214e-17
6695.0194    2.7403e-17
6696.0344    2.6483e-17
6697.0493    2.5941e-17
6698.0643    2.5670e-17
6699.0793    2.5075e-17
6700.0942    2.2945e-17
6701.1092    2.4875e-17
6702.1242    2.4833e-17
6703.1391    2.4063e-17
6704.1541    2.3014e-17
6705.1690    2.3743e-17
6706.1840    2.3863e-17
6707.1990    2.8970e-17
6708.2139    3.6897e-17
6709.2289    3.8797e-17
6710.2439    3.9043e-17
6711.2588    3.8213e-17
6712.2738    3.3965e-17
6713.2887    2.7439e-17
6714.3037    2.3918e-17
6715.3187    2.3163e-17
6716.3336    2.3375e-17
6717.3486    2.3620e-17
6718.3636    2.3265e-17
6719.3785    2.2988e-17
6720.3935    2.2802e-17
6721.4084    2.1979e-17
6722.4234    2.2171e-17
6723.4384    2.3498e-17
6724.4533    2.4035e-17
6725.4683    2.3282e-17
6726.4832    2.3643e-17
6727.4982    2.4325e-17
6728.5132    2.6741e-17
6729.5281    3.0967e-17
6730.5431    3.2404e-17
6731.5581    3.1871e-17
6732.5730    3.1609e-17
6733.5880    2.8890e-17
6734.6029    2.5128e-17
6735.6179    2.4196e-17
6736.6329    2.4704e-17
6737.6478    2.3496e-17
6738.6628    2.2838e-17
6739.6778    2.3656e-17
6740.6927    2.3475e-17
6741.7077    2.3932e-17
6742.7226    2.3727e-17
6743.7376    2.3618e-17
6744.7526    2.4188e-17
6745.7675    2.3751e-17
6746.7825    2.2995e-17
6747.7975    2.2887e-17
6748.8124    2.2229e-17
6749.8274    2.3452e-17
6750.8423    2.2263e-17
6751.8573    2.2711e-17
6752.8723    2.3187e-17
6753.8872    2.1810e-17
6754.9022    2.3105e-17
6755.9171    2.3284e-17
6756.9321    2.4698e-17
6757.9471    2.4567e-17
6758.9620    2.3284e-17
6759.9770    2.3220e-17
6760.9920    2.3097e-17
6762.0069    2.2051e-17
6763.0219    2.3773e-17
6764.0368    2.3335e-17
6765.0518    2.2789e-17
6766.0668    2.2635e-17
6767.0817    2.3420e-17
6768.0967    2.2629e-17
6769.1117    2.3649e-17
6770.1266    2.3770e-17
6771.1416    2.1831e-17
6772.1565    2.1724e-17
6773.1715    2.2672e-17
6774.1865    2.2147e-17
6775.2014    2.1772e-17
6776.2164    2.3257e-17
6777.2313    2.3940e-17
6778.2463    2.3215e-17
6779.2613    2.2912e-17
6780.2762    2.3030e-17
6781.2912    2.3110e-17
6782.3062    2.3688e-17
6783.3211    2.3043e-17
6784.3361    2.3274e-17
6785.3510    2.2538e-17
6786.3660    2.3195e-17
6787.3810    2.2920e-17
6788.3959    2.3388e-17
6789.4109    2.3561e-17
6790.4259    2.2768e-17
6791.4408    2.3739e-17
6792.4558    2.3177e-17
6793.4707    2.3272e-17
6794.4857    2.3881e-17
6795.5007    2.4014e-17
6796.5156    2.3150e-17
6797.5306    2.3150e-17
6798.5455    2.3795e-17
6799.5605    2.3497e-17
6800.5755    2.3165e-17
6801.5904    2.3207e-17
6802.6054    2.2755e-17
6803.6204    2.2523e-17
6804.6353    2.2697e-17
6805.6503    2.2999e-17
6806.6652    2.3209e-17
6807.6802    2.2726e-17
6808.6952    2.2937e-17
6809.7101    2.3073e-17
6810.7251    2.1777e-17
6811.7401    2.0926e-17
6812.7550    2.0986e-17
6813.7700    2.2029e-17
6814.7849    2.2630e-17
6815.7999    2.2417e-17
6816.8149    2.1735e-17
6817.8298    2.0903e-17
6818.8448    2.1929e-17
6819.8598    2.2674e-17
6820.8747    2.1981e-17
6821.8897    2.1903e-17
6822.9046    2.2086e-17
6823.9196    2.2187e-17
6824.9346    2.1954e-17
6825.9495    2.0800e-17
6826.9645    2.0429e-17
6827.9794    2.0435e-17
6828.9944    2.2067e-17
6830.0094    2.4331e-17
6831.0243    2.3056e-17
6832.0393    1.9646e-17
6833.0543    2.0452e-17
6834.0692    1.8861e-17
6835.0842    2.2228e-17
6836.0991    2.3045e-17
6837.1141    2.3172e-17
6838.1291    2.2159e-17
6839.1440    2.0925e-17
6840.1590    2.0321e-17
6841.1740    2.3141e-17
6842.1889    2.1498e-17
6843.2039    2.2574e-17
6844.2188    2.3946e-17
6845.2338    2.4206e-17
6846.2488    2.2822e-17
6847.2637    2.0570e-17
6848.2787    2.2351e-17
6849.2936    2.1535e-17
6850.3086    2.2302e-17
6851.3236    2.1518e-17
6852.3385    1.9652e-17
6853.3535    2.0255e-17
6854.3685    2.0354e-17
6855.3834    2.1586e-17
6856.3984    2.1946e-17
6857.4133    2.1363e-17
6858.4283    2.1444e-17
6859.4433    2.0283e-17
6860.4582    1.8926e-17
6861.4732    1.8602e-17
6862.4882    2.0259e-17
