Title: The Final Season Reimagined: 30 Tidal Disruption Events from the 
       ZTF-I Survey 
Authors: Hammerstein E., van Velzen S., Gezari S., Cenko S.B., Yao Y., Ward C.,
    Frederick S., Villanueva N., Somalwar J.J., Graham M.J., Kulkarni S.R., 
    Stern D., Andreoni I., Bellm E.C., Dekany R., Dhawan S., Drake A.J., 
    Fremling C., Gatkine P., Groom S.L., Ho A.Y.Q., Kasliwal M.M., 
    Karambelkar V., Kool E.C., Masci F.J., Medford M.S., Perley D.A., 
    Purdum J., van Roestel J., Sharma Y., Sollerman J., Taggart K., Yan L.
Table: Data behind Figure 1 -- DBSP spectrum of Bronn
================================================================================
Byte-by-byte Description of file: Bronn_DBSP.mrt
--------------------------------------------------------------------------------
   Bytes Format Units         Label     Explanations
--------------------------------------------------------------------------------
   1-  9 F9.3   0.1nm         wave      Wavelength, Angstroms
  11- 20 A10    mW/m2/0.1nm   flux      Flux density, calibrated, erg/cm^2/s/Ang
--------------------------------------------------------------------------------
 3400.0   9.8779e-17 
 3401.525 1.3515e-16 
 3403.05  1.1535e-16 
 3404.575 1.0818e-16 
 3406.1   9.4049e-17 
 3407.625 1.1309e-16 
 3409.15  8.7261e-17 
 3410.675 9.81e-17   
 3412.2   9.2375e-17 
 3413.725 1.2372e-16 
 3415.25  7.5656e-17 
 3416.775 1.0597e-16 
 3418.3   9.596e-17  
 3419.825 1.0626e-16 
 3421.35  1.361e-16  
 3422.875 1.1644e-16 
 3424.4   1.2194e-16 
 3425.925 1.0092e-16 
 3427.45  7.4164e-17 
 3428.975 8.8492e-17 
 3430.5   1.1032e-16 
 3432.025 1.0084e-16 
 3433.55  8.455e-17  
 3435.075 6.4992e-17 
 3436.6   1.0835e-16 
 3438.125 9.9282e-17 
 3439.65  9.4581e-17 
 3441.175 1.0309e-16 
 3442.7   9.8815e-17 
 3444.225 8.5882e-17 
 3445.75  7.765e-17  
 3447.275 9.662e-17  
 3448.8   8.2259e-17 
 3450.325 8.9433e-17 
 3451.85  8.7879e-17 
 3453.375 8.8152e-17 
 3454.9   8.6243e-17 
 3456.425 8.6276e-17 
 3457.95  1.2071e-16 
 3459.475 1.3166e-16 
 3461.0   9.6051e-17 
 3462.525 7.4029e-17 
 3464.05  7.4921e-17 
 3465.575 1.0991e-16 
 3467.1   8.9742e-17 
 3468.625 9.5481e-17 
 3470.15  1.0893e-16 
 3471.675 1.0641e-16 
 3473.2   1.0655e-16 
 3474.725 8.0959e-17 
 3476.25  8.325e-17  
 3477.775 9.1666e-17 
 3479.3   8.5408e-17 
 3480.825 9.3052e-17 
 3482.35  1.164e-16  
 3483.875 8.904e-17  
 3485.4   9.5382e-17 
 3486.925 1.006e-16  
 3488.45  1.0062e-16 
 3489.975 9.9661e-17 
 3491.5   1.1328e-16 
 3493.025 1.1909e-16 
 3494.55  8.7219e-17 
 3496.075 1.1574e-16 
 3497.6   1.0017e-16 
 3499.125 9.3648e-17 
 3500.65  9.2559e-17 
 3502.175 8.5979e-17 
 3503.7   8.6625e-17 
 3505.225 9.6733e-17 
 3506.75  1.073e-16  
 3508.275 1.0383e-16 
 3509.8   1.022e-16  
 3511.325 9.9005e-17 
 3512.85  9.575e-17  
 3514.375 1.1185e-16 
 3515.9   1.1649e-16 
 3517.425 1.1285e-16 
 3518.95  1.095e-16  
 3520.475 9.7861e-17 
 3522.0   1.1153e-16 
 3523.525 1.0411e-16 
 3525.05  9.1703e-17 
 3526.575 9.4138e-17 
 3528.1   9.3015e-17 
 3529.625 9.066e-17  
 3531.15  1.0009e-16 
 3532.675 9.7018e-17 
 3534.2   1.0598e-16 
 3535.725 9.7335e-17 
 3537.25  1.0883e-16 
 3538.775 1.033e-16  
 3540.3   8.8494e-17 
 3541.825 9.1959e-17 
 3543.35  9.9278e-17 
 3544.875 8.6732e-17 
 3546.4   9.4921e-17 
 3547.925 9.0885e-17 
 3549.45  8.4213e-17 
 3550.975 8.9722e-17 
 3552.5   7.9055e-17 
 3554.025 9.4125e-17 
 3555.55  1.038e-16  
 3557.075 1.0775e-16 
 3558.6   1.0112e-16 
 3560.125 9.4643e-17 
 3561.65  9.8023e-17 
 3563.175 9.6962e-17 
 3564.7   1.1017e-16 
 3566.225 1.2512e-16 
 3567.75  1.0269e-16 
 3569.275 9.5432e-17 
 3570.8   9.9308e-17 
 3572.325 1.1017e-16 
 3573.85  1.019e-16  
 3575.375 8.8572e-17 
 3576.9   8.146e-17  
 3578.425 8.8246e-17 
 3579.95  1.0359e-16 
 3581.475 9.5917e-17 
 3583.0   9.1014e-17 
 3584.525 9.453e-17  
 3586.05  9.7133e-17 
 3587.575 9.0678e-17 
 3589.1   9.2745e-17 
 3590.625 1.0768e-16 
 3592.15  1.1389e-16 
 3593.675 9.2343e-17 
 3595.2   1.004e-16  
 3596.725 1.0288e-16 
 3598.25  1.0777e-16 
 3599.775 1.0369e-16 
 3601.3   1.0119e-16 
 3602.825 9.0381e-17 
 3604.35  9.355e-17  
 3605.875 9.8821e-17 
 3607.4   1.0919e-16 
 3608.925 1.0339e-16 
 3610.45  9.0393e-17 
 3611.975 9.9599e-17 
 3613.5   1.0161e-16 
 3615.025 9.3686e-17 
 3616.55  9.6038e-17 
 3618.075 1.1001e-16 
 3619.6   1.0192e-16 
 3621.125 9.5348e-17 
 3622.65  9.376e-17  
 3624.175 8.2682e-17 
 3625.7   8.7574e-17 
 3627.225 9.0523e-17 
 3628.75  1.0831e-16 
 3630.275 9.0627e-17 
 3631.8   9.6463e-17 
 3633.325 9.4339e-17 
 3634.85  8.8505e-17 
 3636.375 1.0753e-16 
 3637.9   1.0549e-16 
 3639.425 1.0737e-16 
 3640.95  1.056e-16  
 3642.475 1.0826e-16 
 3644.0   1.0829e-16 
 3645.525 9.3981e-17 
 3647.05  8.5898e-17 
 3648.575 9.3773e-17 
 3650.1   1.0978e-16 
 3651.625 1.0784e-16 
 3653.15  1.0829e-16 
 3654.675 9.7597e-17 
 3656.2   9.6869e-17 
 3657.725 9.1747e-17 
 3659.25  1.0492e-16 
 3660.775 1.0067e-16 
 3662.3   1.0973e-16 
 3663.825 1.0107e-16 
 3665.35  1.11e-16   
 3666.875 1.0772e-16 
 3668.4   1.0038e-16 
 3669.925 1.0906e-16 
 3671.45  1.0709e-16 
 3672.975 9.343e-17  
 3674.5   9.1463e-17 
 3676.025 9.8241e-17 
 3677.55  9.4817e-17 
 3679.075 9.542e-17  
 3680.6   9.191e-17  
 3682.125 9.3341e-17 
 3683.65  8.8004e-17 
 3685.175 8.0458e-17 
 3686.7   8.7964e-17 
 3688.225 9.169e-17  
 3689.75  8.2037e-17 
 3691.275 9.5432e-17 
 3692.8   1.0558e-16 
 3694.325 1.0178e-16 
 3695.85  1.0563e-16 
 3697.375 9.3813e-17 
 3698.9   1.0303e-16 
 3700.425 8.4162e-17 
 3701.95  8.2237e-17 
 3703.475 8.6559e-17 
 3705.0   8.709e-17  
 3706.525 8.8115e-17 
 3708.05  8.7107e-17 
 3709.575 9.3761e-17 
 3711.1   9.7396e-17 
 3712.625 8.9166e-17 
 3714.15  8.9277e-17 
 3715.675 9.9436e-17 
 3717.2   1.0449e-16 
 3718.725 9.806e-17  
 3720.25  1.1137e-16 
 3721.775 9.606e-17  
 3723.3   8.7799e-17 
 3724.825 9.5974e-17 
 3726.35  8.3327e-17 
 3727.875 9.3178e-17 
 3729.4   7.997e-17  
 3730.925 1.006e-16  
 3732.45  1.1066e-16 
 3733.975 9.873e-17  
 3735.5   9.5527e-17 
 3737.025 1.0076e-16 
 3738.55  9.4798e-17 
 3740.075 9.0185e-17 
 3741.6   9.0357e-17 
 3743.125 9.1259e-17 
 3744.65  9.9605e-17 
 3746.175 8.7355e-17 
 3747.7   7.7788e-17 
 3749.225 9.2784e-17 
 3750.75  1.0385e-16 
 3752.275 1.038e-16  
 3753.8   1.06e-16   
 3755.325 9.6871e-17 
 3756.85  9.7334e-17 
 3758.375 9.4878e-17 
 3759.9   9.8243e-17 
 3761.425 9.7481e-17 
 3762.95  8.6274e-17 
 3764.475 7.9575e-17 
 3766.0   8.6547e-17 
 3767.525 9.1874e-17 
 3769.05  1.0356e-16 
 3770.575 7.902e-17  
 3772.1   8.2435e-17 
 3773.625 8.6446e-17 
 3775.15  8.702e-17  
 3776.675 9.5086e-17 
 3778.2   9.2714e-17 
 3779.725 8.5084e-17 
 3781.25  9.1394e-17 
 3782.775 9.5068e-17 
 3784.3   9.4404e-17 
 3785.825 9.1632e-17 
 3787.35  9.6927e-17 
 3788.875 9.5497e-17 
 3790.4   9.3594e-17 
 3791.925 9.2024e-17 
 3793.45  8.247e-17  
 3794.975 9.7894e-17 
 3796.5   9.9175e-17 
 3798.025 9.0643e-17 
 3799.55  8.3973e-17 
 3801.075 8.7768e-17 
 3802.6   9.7602e-17 
 3804.125 9.0134e-17 
 3805.65  9.1148e-17 
 3807.175 1.0301e-16 
 3808.7   1.0357e-16 
 3810.225 9.7428e-17 
 3811.75  8.4192e-17 
 3813.275 9.3864e-17 
 3814.8   9.3704e-17 
 3816.325 9.9149e-17 
 3817.85  9.4484e-17 
 3819.375 9.1525e-17 
 3820.9   9.2482e-17 
 3822.425 1.055e-16  
 3823.95  1.0567e-16 
 3825.475 8.5478e-17 
 3827.0   9.1598e-17 
 3828.525 9.1864e-17 
 3830.05  8.1644e-17 
 3831.575 9.3862e-17 
 3833.1   9.8481e-17 
 3834.625 9.0087e-17 
 3836.15  8.5977e-17 
 3837.675 8.6112e-17 
 3839.2   9.1378e-17 
 3840.725 8.7473e-17 
 3842.25  8.2315e-17 
 3843.775 8.5977e-17 
 3845.3   9.3932e-17 
 3846.825 9.833e-17  
 3848.35  1.058e-16  
 3849.875 1.0844e-16 
 3851.4   1.0815e-16 
 3852.925 1.0974e-16 
 3854.45  8.7545e-17 
 3855.975 7.9959e-17 
 3857.5   9.0672e-17 
 3859.025 1.0245e-16 
 3860.55  9.0399e-17 
 3862.075 9.0149e-17 
 3863.6   8.9674e-17 
 3865.125 8.1157e-17 
 3866.65  8.328e-17  
 3868.175 8.6491e-17 
 3869.7   8.6544e-17 
 3871.225 9.7369e-17 
 3872.75  9.5809e-17 
 3874.275 8.6817e-17 
 3875.8   9.8179e-17 
 3877.325 9.429e-17  
 3878.85  8.9207e-17 
 3880.375 9.1093e-17 
 3881.9   8.3999e-17 
 3883.425 9.5512e-17 
 3884.95  8.8626e-17 
 3886.475 8.9256e-17 
 3888.0   8.8662e-17 
 3889.525 8.7373e-17 
 3891.05  9.3787e-17 
 3892.575 9.0153e-17 
 3894.1   8.8126e-17 
 3895.625 9.0676e-17 
 3897.15  9.9467e-17 
 3898.675 9.9525e-17 
 3900.2   9.4054e-17 
 3901.725 8.6867e-17 
 3903.25  9.4411e-17 
 3904.775 1.0175e-16 
 3906.3   9.2995e-17 
 3907.825 9.5393e-17 
 3909.35  9.6473e-17 
 3910.875 9.8644e-17 
 3912.4   9.214e-17  
 3913.925 8.4033e-17 
 3915.45  8.3011e-17 
 3916.975 9.8494e-17 
 3918.5   1.0431e-16 
 3920.025 8.7527e-17 
 3921.55  8.8837e-17 
 3923.075 8.5784e-17 
 3924.6   9.0604e-17 
 3926.125 8.2132e-17 
 3927.65  8.5447e-17 
 3929.175 9.1922e-17 
 3930.7   8.2353e-17 
 3932.225 8.4199e-17 
 3933.75  8.026e-17  
 3935.275 8.211e-17  
 3936.8   8.6177e-17 
 3938.325 8.4514e-17 
 3939.85  9.0061e-17 
 3941.375 9.3625e-17 
 3942.9   9.2829e-17 
 3944.425 9.7917e-17 
 3945.95  9.7856e-17 
 3947.475 8.6097e-17 
 3949.0   8.1757e-17 
 3950.525 8.3238e-17 
 3952.05  8.1114e-17 
 3953.575 8.4399e-17 
 3955.1   9.2548e-17 
 3956.625 8.8707e-17 
 3958.15  8.438e-17  
 3959.675 8.5383e-17 
 3961.2   9.2744e-17 
 3962.725 7.7022e-17 
 3964.25  7.6129e-17 
 3965.775 7.6828e-17 
 3967.3   8.1225e-17 
 3968.825 7.5126e-17 
 3970.35  7.2071e-17 
 3971.875 8.0178e-17 
 3973.4   8.4227e-17 
 3974.925 8.8865e-17 
 3976.45  9.7827e-17 
 3977.975 9.4678e-17 
 3979.5   8.7888e-17 
 3981.025 9.4731e-17 
 3982.55  9.5685e-17 
 3984.075 8.6917e-17 
 3985.6   7.9027e-17 
 3987.125 8.227e-17  
 3988.65  8.0355e-17 
 3990.175 8.7372e-17 
 3991.7   8.9627e-17 
 3993.225 9.5411e-17 
 3994.75  9.9935e-17 
 3996.275 8.8005e-17 
 3997.8   9.3358e-17 
 3999.325 9.3043e-17 
 4000.85  9.1341e-17 
 4002.375 9.6356e-17 
 4003.9   9.361e-17  
 4005.425 8.417e-17  
 4006.95  9.0594e-17 
 4008.475 8.1985e-17 
 4010.0   8.6351e-17 
 4011.525 9.3006e-17 
 4013.05  8.9964e-17 
 4014.575 8.5283e-17 
 4016.1   9.4197e-17 
 4017.625 8.6837e-17 
 4019.15  8.7548e-17 
 4020.675 9.1067e-17 
 4022.2   8.4196e-17 
 4023.725 9.4802e-17 
 4025.25  1.0384e-16 
 4026.775 9.6182e-17 
 4028.3   8.9843e-17 
 4029.825 8.9357e-17 
 4031.35  8.9342e-17 
 4032.875 9.3393e-17 
 4034.4   9.5948e-17 
 4035.925 9.8321e-17 
 4037.45  9.0382e-17 
 4038.975 8.8916e-17 
 4040.5   8.6726e-17 
 4042.025 8.2177e-17 
 4043.55  9.5911e-17 
 4045.075 9.1055e-17 
 4046.6   1.0772e-16 
 4048.125 1.0761e-16 
 4049.65  1.1001e-16 
 4051.175 9.276e-17  
 4052.7   8.9074e-17 
 4054.225 8.4707e-17 
 4055.75  8.9599e-17 
 4057.275 9.4317e-17 
 4058.8   9.5667e-17 
 4060.325 8.8344e-17 
 4061.85  8.1073e-17 
 4063.375 9.193e-17  
 4064.9   9.7614e-17 
 4066.425 9.6965e-17 
 4067.95  9.1176e-17 
 4069.475 9.5033e-17 
 4071.0   8.9054e-17 
 4072.525 8.3475e-17 
 4074.05  9.0377e-17 
 4075.575 9.0802e-17 
 4077.1   9.0382e-17 
 4078.625 8.418e-17  
 4080.15  8.5752e-17 
 4081.675 7.9859e-17 
 4083.2   9.0959e-17 
 4084.725 8.9243e-17 
 4086.25  8.8976e-17 
 4087.775 8.8924e-17 
 4089.3   8.5064e-17 
 4090.825 7.7525e-17 
 4092.35  8.5979e-17 
 4093.875 8.8481e-17 
 4095.4   8.7509e-17 
 4096.925 8.8582e-17 
 4098.45  8.5565e-17 
 4099.975 9.0375e-17 
 4101.5   9.4634e-17 
 4103.025 9.0445e-17 
 4104.55  9.0313e-17 
 4106.075 8.7798e-17 
 4107.6   8.9383e-17 
 4109.125 8.6697e-17 
 4110.65  9.6376e-17 
 4112.175 9.8677e-17 
 4113.7   8.6263e-17 
 4115.225 8.2314e-17 
 4116.75  8.0711e-17 
 4118.275 8.6701e-17 
 4119.8   9.0536e-17 
 4121.325 8.6454e-17 
 4122.85  8.9396e-17 
 4124.375 9.371e-17  
 4125.9   9.6527e-17 
 4127.425 9.2733e-17 
 4128.95  9.2072e-17 
 4130.475 9.8954e-17 
 4132.0   9.1509e-17 
 4133.525 9.2902e-17 
 4135.05  8.5436e-17 
 4136.575 8.2928e-17 
 4138.1   9.0033e-17 
 4139.625 9.8975e-17 
 4141.15  8.4425e-17 
 4142.675 8.1598e-17 
 4144.2   7.9904e-17 
 4145.725 8.4188e-17 
 4147.25  8.5386e-17 
 4148.775 8.8213e-17 
 4150.3   8.9602e-17 
 4151.825 9.1283e-17 
 4153.35  8.7073e-17 
 4154.875 8.7526e-17 
 4156.4   9.1993e-17 
 4157.925 8.9854e-17 
 4159.45  8.7109e-17 
 4160.975 9.596e-17  
 4162.5   9.3671e-17 
 4164.025 8.1343e-17 
 4165.55  8.3884e-17 
 4167.075 8.1211e-17 
 4168.6   8.1884e-17 
 4170.125 8.7361e-17 
 4171.65  9.2203e-17 
 4173.175 8.5048e-17 
 4174.7   8.5112e-17 
 4176.225 8.1918e-17 
 4177.75  8.6371e-17 
 4179.275 8.6645e-17 
 4180.8   8.1778e-17 
 4182.325 8.8223e-17 
 4183.85  7.8716e-17 
 4185.375 7.8121e-17 
 4186.9   8.4586e-17 
 4188.425 9.6324e-17 
 4189.95  9.0941e-17 
 4191.475 9.2218e-17 
 4193.0   9.0499e-17 
 4194.525 9.5032e-17 
 4196.05  8.7529e-17 
 4197.575 8.8077e-17 
 4199.1   7.9314e-17 
 4200.625 8.3744e-17 
 4202.15  8.5152e-17 
 4203.675 8.9683e-17 
 4205.2   7.8939e-17 
 4206.725 8.7248e-17 
 4208.25  8.0021e-17 
 4209.775 8.4654e-17 
 4211.3   8.0645e-17 
 4212.825 8.5155e-17 
 4214.35  8.6941e-17 
 4215.875 9.21e-17   
 4217.4   8.7663e-17 
 4218.925 8.6284e-17 
 4220.45  8.52e-17   
 4221.975 7.9425e-17 
 4223.5   7.6384e-17 
 4225.025 8.9113e-17 
 4226.55  8.8954e-17 
 4228.075 7.8729e-17 
 4229.6   8.0765e-17 
 4231.125 7.8046e-17 
 4232.65  8.0505e-17 
 4234.175 8.1941e-17 
 4235.7   9.0242e-17 
 4237.225 9.3321e-17 
 4238.75  8.6752e-17 
 4240.275 9.0104e-17 
 4241.8   8.0527e-17 
 4243.325 8.1628e-17 
 4244.85  8.5632e-17 
 4246.375 8.9908e-17 
 4247.9   8.6305e-17 
 4249.425 8.7749e-17 
 4250.95  7.1801e-17 
 4252.475 7.9995e-17 
 4254.0   8.0604e-17 
 4255.525 7.4697e-17 
 4257.05  8.9004e-17 
 4258.575 9.0688e-17 
 4260.1   9.093e-17  
 4261.625 8.6957e-17 
 4263.15  9.3496e-17 
 4264.675 9.1252e-17 
 4266.2   8.0202e-17 
 4267.725 8.3802e-17 
 4269.25  7.8473e-17 
 4270.775 7.9228e-17 
 4272.3   9.0615e-17 
 4273.825 9.5406e-17 
 4275.35  8.9567e-17 
 4276.875 8.5067e-17 
 4278.4   8.9324e-17 
 4279.925 8.8203e-17 
 4281.45  9.2019e-17 
 4282.975 8.4471e-17 
 4284.5   6.9398e-17 
 4286.025 7.5033e-17 
 4287.55  7.9204e-17 
 4289.075 7.7884e-17 
 4290.6   8.105e-17  
 4292.125 8.4074e-17 
 4293.65  8.8759e-17 
 4295.175 8.1865e-17 
 4296.7   8.3339e-17 
 4298.225 8.3635e-17 
 4299.75  7.4447e-17 
 4301.275 7.337e-17  
 4302.8   7.4583e-17 
 4304.325 7.7627e-17 
 4305.85  8.4572e-17 
 4307.375 8.2771e-17 
 4308.9   8.7255e-17 
 4310.425 8.7244e-17 
 4311.95  8.3071e-17 
 4313.475 7.9304e-17 
 4315.0   7.5357e-17 
 4316.525 7.9548e-17 
 4318.05  8.8959e-17 
 4319.575 8.7738e-17 
 4321.1   8.0034e-17 
 4322.625 7.1275e-17 
 4324.15  7.0696e-17 
 4325.675 8.2942e-17 
 4327.2   7.9512e-17 
 4328.725 8.0841e-17 
 4330.25  7.217e-17  
 4331.775 8.2258e-17 
 4333.3   8.5884e-17 
 4334.825 9.6732e-17 
 4336.35  8.7326e-17 
 4337.875 8.329e-17  
 4339.4   8.2373e-17 
 4340.925 8.9502e-17 
 4342.45  9.0493e-17 
 4343.975 8.6091e-17 
 4345.5   7.9971e-17 
 4347.025 8.4993e-17 
 4348.55  8.1663e-17 
 4350.075 7.9229e-17 
 4351.6   8.3727e-17 
 4353.125 7.7386e-17 
 4354.65  7.9399e-17 
 4356.175 8.0446e-17 
 4357.7   7.5377e-17 
 4359.225 8.8311e-17 
 4360.75  8.1566e-17 
 4362.275 9.4804e-17 
 4363.8   9.6285e-17 
 4365.325 8.913e-17  
 4366.85  8.9961e-17 
 4368.375 9.686e-17  
 4369.9   9.3817e-17 
 4371.425 9.3272e-17 
 4372.95  1.0498e-16 
 4374.475 9.1603e-17 
 4376.0   8.6906e-17 
 4377.525 8.5763e-17 
 4379.05  8.6051e-17 
 4380.575 9.1383e-17 
 4382.1   8.4682e-17 
 4383.625 8.6053e-17 
 4385.15  9.5565e-17 
 4386.675 8.3224e-17 
 4388.2   8.5397e-17 
 4389.725 8.984e-17  
 4391.25  7.877e-17  
 4392.775 8.4521e-17 
 4394.3   8.2245e-17 
 4395.825 8.7317e-17 
 4397.35  8.1262e-17 
 4398.875 7.2463e-17 
 4400.4   7.7561e-17 
 4401.925 7.2064e-17 
 4403.45  8.4732e-17 
 4404.975 8.2747e-17 
 4406.5   8.2992e-17 
 4408.025 8.7436e-17 
 4409.55  8.6949e-17 
 4411.075 8.6527e-17 
 4412.6   8.6231e-17 
 4414.125 9.6975e-17 
 4415.65  1.0085e-16 
 4417.175 9.2726e-17 
 4418.7   7.6767e-17 
 4420.225 8.595e-17  
 4421.75  8.673e-17  
 4423.275 8.54e-17   
 4424.8   9.1958e-17 
 4426.325 8.9262e-17 
 4427.85  8.8351e-17 
 4429.375 9.3824e-17 
 4430.9   9.4995e-17 
 4432.425 9.5315e-17 
 4433.95  1.0204e-16 
 4435.475 9.6715e-17 
 4437.0   9.7036e-17 
 4438.525 9.842e-17  
 4440.05  9.8259e-17 
 4441.575 9.4168e-17 
 4443.1   9.5837e-17 
 4444.625 8.5553e-17 
 4446.15  8.4003e-17 
 4447.675 8.121e-17  
 4449.2   8.32e-17   
 4450.725 8.589e-17  
 4452.25  8.0199e-17 
 4453.775 8.2978e-17 
 4455.3   7.8901e-17 
 4456.825 8.3894e-17 
 4458.35  9.3168e-17 
 4459.875 7.4979e-17 
 4461.4   6.9019e-17 
 4462.925 8.3314e-17 
 4464.45  8.5246e-17 
 4465.975 8.5099e-17 
 4467.5   8.2605e-17 
 4469.025 8.9672e-17 
 4470.55  9.3971e-17 
 4472.075 8.7905e-17 
 4473.6   9.6124e-17 
 4475.125 8.8734e-17 
 4476.65  8.9239e-17 
 4478.175 8.5978e-17 
 4479.7   8.4478e-17 
 4481.225 8.5683e-17 
 4482.75  8.5576e-17 
 4484.275 9.2929e-17 
 4485.8   8.5845e-17 
 4487.325 9.108e-17  
 4488.85  9.4603e-17 
 4490.375 9.364e-17  
 4491.9   9.5945e-17 
 4493.425 9.2041e-17 
 4494.95  9.26e-17   
 4496.475 8.179e-17  
 4498.0   7.7285e-17 
 4499.525 9.1726e-17 
 4501.05  8.5128e-17 
 4502.575 8.3884e-17 
 4504.1   8.0705e-17 
 4505.625 7.7723e-17 
 4507.15  7.8341e-17 
 4508.675 7.5141e-17 
 4510.2   6.8305e-17 
 4511.725 6.6314e-17 
 4513.25  6.5098e-17 
 4514.775 5.7139e-17 
 4516.3   7.3233e-17 
 4517.825 6.4079e-17 
 4519.35  6.5022e-17 
 4520.875 8.6252e-17 
 4522.4   9.1647e-17 
 4523.925 9.6206e-17 
 4525.45  8.0078e-17 
 4526.975 7.5501e-17 
 4528.5   8.9034e-17 
 4530.025 8.323e-17  
 4531.55  8.6937e-17 
 4533.075 8.8683e-17 
 4534.6   8.1125e-17 
 4536.125 8.488e-17  
 4537.65  8.4453e-17 
 4539.175 8.332e-17  
 4540.7   7.7802e-17 
 4542.225 6.7641e-17 
 4543.75  6.7877e-17 
 4545.275 8.1089e-17 
 4546.8   7.9853e-17 
 4548.325 7.4956e-17 
 4549.85  6.8509e-17 
 4551.375 6.1541e-17 
 4552.9   7.2447e-17 
 4554.425 6.6981e-17 
 4555.95  6.4171e-17 
 4557.475 6.7663e-17 
 4559.0   7.755e-17  
 4560.525 7.7848e-17 
 4562.05  8.9974e-17 
 4563.575 8.2414e-17 
 4565.1   7.8821e-17 
 4566.625 7.6522e-17 
 4568.15  8.3278e-17 
 4569.675 7.9766e-17 
 4571.2   7.6132e-17 
 4572.725 8.6336e-17 
 4574.25  9.8623e-17 
 4575.775 8.8357e-17 
 4577.3   8.0152e-17 
 4578.825 8.7113e-17 
 4580.35  9.084e-17  
 4581.875 8.9784e-17 
 4583.4   9.1355e-17 
 4584.925 9.4212e-17 
 4586.45  8.1011e-17 
 4587.975 8.3295e-17 
 4589.5   9.9341e-17 
 4591.025 9.1283e-17 
 4592.55  8.2748e-17 
 4594.075 8.0637e-17 
 4595.6   8.7653e-17 
 4597.125 8.3659e-17 
 4598.65  8.883e-17  
 4600.175 8.8938e-17 
 4601.7   9.8137e-17 
 4603.225 9.6558e-17 
 4604.75  9.2442e-17 
 4606.275 8.9364e-17 
 4607.8   9.0828e-17 
 4609.325 9.3862e-17 
 4610.85  1.0256e-16 
 4612.375 1.0303e-16 
 4613.9   8.3905e-17 
 4615.425 9.4017e-17 
 4616.95  8.4534e-17 
 4618.475 9.038e-17  
 4620.0   9.03e-17   
 4621.525 9.4439e-17 
 4623.05  1.008e-16  
 4624.575 9.2807e-17 
 4626.1   8.5677e-17 
 4627.625 8.4543e-17 
 4629.15  8.7987e-17 
 4630.675 8.9528e-17 
 4632.2   8.6976e-17 
 4633.725 8.2687e-17 
 4635.25  8.3953e-17 
 4636.775 9.2742e-17 
 4638.3   9.1661e-17 
 4639.825 9.2549e-17 
 4641.35  9.046e-17  
 4642.875 8.6029e-17 
 4644.4   8.4844e-17 
 4645.925 9.172e-17  
 4647.45  9.5562e-17 
 4648.975 9.548e-17  
 4650.5   1.0015e-16 
 4652.025 8.9982e-17 
 4653.55  8.8301e-17 
 4655.075 8.0271e-17 
 4656.6   9.4945e-17 
 4658.125 8.7767e-17 
 4659.65  8.6157e-17 
 4661.175 8.3872e-17 
 4662.7   8.1635e-17 
 4664.225 8.6668e-17 
 4665.75  9.0907e-17 
 4667.275 8.924e-17  
 4668.8   9.074e-17  
 4670.325 8.7696e-17 
 4671.85  9.019e-17  
 4673.375 8.3107e-17 
 4674.9   8.9521e-17 
 4676.425 7.8657e-17 
 4677.95  8.0168e-17 
 4679.475 8.1983e-17 
 4681.0   7.6655e-17 
 4682.525 9.1792e-17 
 4684.05  8.2082e-17 
 4685.575 8.1692e-17 
 4687.1   8.1211e-17 
 4688.625 7.7727e-17 
 4690.15  8.1207e-17 
 4691.675 8.4992e-17 
 4693.2   9.251e-17  
 4694.725 7.6537e-17 
 4696.25  8.1391e-17 
 4697.775 7.7903e-17 
 4699.3   8.1224e-17 
 4700.825 8.6506e-17 
 4702.35  7.7061e-17 
 4703.875 7.6604e-17 
 4705.4   7.7641e-17 
 4706.925 7.7148e-17 
 4708.45  8.7825e-17 
 4709.975 8.5823e-17 
 4711.5   8.6575e-17 
 4713.025 9.2895e-17 
 4714.55  9.0931e-17 
 4716.075 7.7949e-17 
 4717.6   8.2506e-17 
 4719.125 8.8971e-17 
 4720.65  9.2679e-17 
 4722.175 8.0349e-17 
 4723.7   8.0482e-17 
 4725.225 9.0365e-17 
 4726.75  8.9491e-17 
 4728.275 8.9915e-17 
 4729.8   9.559e-17  
 4731.325 9.5855e-17 
 4732.85  8.9974e-17 
 4734.375 9.4173e-17 
 4735.9   8.685e-17  
 4737.425 8.8156e-17 
 4738.95  7.4863e-17 
 4740.475 7.9049e-17 
 4742.0   8.4048e-17 
 4743.525 8.6178e-17 
 4745.05  8.9604e-17 
 4746.575 9.4668e-17 
 4748.1   9.0651e-17 
 4749.625 8.597e-17  
 4751.15  9.0862e-17 
 4752.675 9.4654e-17 
 4754.2   8.7717e-17 
 4755.725 9.0273e-17 
 4757.25  8.7984e-17 
 4758.775 8.8531e-17 
 4760.3   9.215e-17  
 4761.825 9.4258e-17 
 4763.35  9.15e-17   
 4764.875 8.1202e-17 
 4766.4   7.7609e-17 
 4767.925 9.1109e-17 
 4769.45  9.25e-17   
 4770.975 8.8739e-17 
 4772.5   9.1203e-17 
 4774.025 9.3146e-17 
 4775.55  8.8251e-17 
 4777.075 8.1225e-17 
 4778.6   7.7403e-17 
 4780.125 8.1172e-17 
 4781.65  8.7979e-17 
 4783.175 8.3578e-17 
 4784.7   8.1307e-17 
 4786.225 7.7953e-17 
 4787.75  7.8802e-17 
 4789.275 8.3316e-17 
 4790.8   8.4377e-17 
 4792.325 8.4587e-17 
 4793.85  8.5603e-17 
 4795.375 8.0344e-17 
 4796.9   7.582e-17  
 4798.425 8.4125e-17 
 4799.95  7.4503e-17 
 4801.475 8.7185e-17 
 4803.0   7.3625e-17 
 4804.525 7.561e-17  
 4806.05  8.7444e-17 
 4807.575 8.4246e-17 
 4809.1   8.3396e-17 
 4810.625 8.8846e-17 
 4812.15  9.1567e-17 
 4813.675 9.1555e-17 
 4815.2   8.5306e-17 
 4816.725 8.4918e-17 
 4818.25  8.1804e-17 
 4819.775 8.1423e-17 
 4821.3   7.8472e-17 
 4822.825 8.0427e-17 
 4824.35  8.33e-17   
 4825.875 8.9789e-17 
 4827.4   8.4263e-17 
 4828.925 9.1622e-17 
 4830.45  8.7515e-17 
 4831.975 8.9084e-17 
 4833.5   7.8747e-17 
 4835.025 7.7856e-17 
 4836.55  7.7382e-17 
 4838.075 8.0426e-17 
 4839.6   8.5362e-17 
 4841.125 9.1966e-17 
 4842.65  8.8819e-17 
 4844.175 8.6363e-17 
 4845.7   7.7992e-17 
 4847.225 6.7784e-17 
 4848.75  7.1469e-17 
 4850.275 8.2576e-17 
 4851.8   8.2314e-17 
 4853.325 8.5252e-17 
 4854.85  7.7538e-17 
 4856.375 7.9164e-17 
 4857.9   8.0886e-17 
 4859.425 8.6635e-17 
 4860.95  7.8124e-17 
 4862.475 8.1562e-17 
 4864.0   8.3118e-17 
 4865.525 8.1082e-17 
 4867.05  7.3532e-17 
 4868.575 8.0888e-17 
 4870.1   9.0269e-17 
 4871.625 8.734e-17  
 4873.15  8.0777e-17 
 4874.675 7.7413e-17 
 4876.2   7.2774e-17 
 4877.725 8.6228e-17 
 4879.25  8.6942e-17 
 4880.775 7.7904e-17 
 4882.3   8.0879e-17 
 4883.825 8.5466e-17 
 4885.35  8.8207e-17 
 4886.875 8.2775e-17 
 4888.4   8.9515e-17 
 4889.925 8.2883e-17 
 4891.45  9.3715e-17 
 4892.975 8.4211e-17 
 4894.5   9.4483e-17 
 4896.025 8.9358e-17 
 4897.55  8.2311e-17 
 4899.075 8.3411e-17 
 4900.6   8.2562e-17 
 4902.125 7.618e-17  
 4903.65  8.1947e-17 
 4905.175 9.4527e-17 
 4906.7   9.3711e-17 
 4908.225 8.7311e-17 
 4909.75  8.928e-17  
 4911.275 9.7349e-17 
 4912.8   9.2289e-17 
 4914.325 8.211e-17  
 4915.85  7.5135e-17 
 4917.375 7.9278e-17 
 4918.9   7.9466e-17 
 4920.425 7.7912e-17 
 4921.95  8.2944e-17 
 4923.475 8.1979e-17 
 4925.0   8.6157e-17 
 4926.525 8.5236e-17 
 4928.05  7.7994e-17 
 4929.575 7.6532e-17 
 4931.1   7.9253e-17 
 4932.625 7.9944e-17 
 4934.15  6.8021e-17 
 4935.675 6.8234e-17 
 4937.2   7.5838e-17 
 4938.725 8.4981e-17 
 4940.25  7.9794e-17 
 4941.775 8.0594e-17 
 4943.3   8.1403e-17 
 4944.825 7.5688e-17 
 4946.35  8.0817e-17 
 4947.875 8.0665e-17 
 4949.4   7.8075e-17 
 4950.925 8.1496e-17 
 4952.45  7.7755e-17 
 4953.975 8.8545e-17 
 4955.5   8.1473e-17 
 4957.025 8.7046e-17 
 4958.55  8.2694e-17 
 4960.075 8.4336e-17 
 4961.6   8.2097e-17 
 4963.125 7.5557e-17 
 4964.65  7.4053e-17 
 4966.175 8.2259e-17 
 4967.7   8.4594e-17 
 4969.225 7.762e-17  
 4970.75  8.059e-17  
 4972.275 8.3932e-17 
 4973.8   8.1087e-17 
 4975.325 8.3142e-17 
 4976.85  7.6203e-17 
 4978.375 6.534e-17  
 4979.9   6.9069e-17 
 4981.425 7.6742e-17 
 4982.95  8.6726e-17 
 4984.475 7.429e-17  
 4986.0   8.1563e-17 
 4987.525 9.1204e-17 
 4989.05  8.2121e-17 
 4990.575 7.547e-17  
 4992.1   8.2192e-17 
 4993.625 7.3783e-17 
 4995.15  7.2475e-17 
 4996.675 8.0112e-17 
 4998.2   8.5758e-17 
 4999.725 8.0397e-17 
 5001.25  8.0987e-17 
 5002.775 7.8466e-17 
 5004.3   9.0545e-17 
 5005.825 8.3102e-17 
 5007.35  8.3512e-17 
 5008.875 8.4572e-17 
 5010.4   9.0081e-17 
 5011.925 7.9875e-17 
 5013.45  7.5902e-17 
 5014.975 7.7619e-17 
 5016.5   7.7413e-17 
 5018.025 7.8685e-17 
 5019.55  7.5715e-17 
 5021.075 7.2208e-17 
 5022.6   7.252e-17  
 5024.125 7.7797e-17 
 5025.65  7.6255e-17 
 5027.175 8.0361e-17 
 5028.7   7.1404e-17 
 5030.225 7.8249e-17 
 5031.75  7.6658e-17 
 5033.275 7.786e-17  
 5034.8   7.5799e-17 
 5036.325 7.7065e-17 
 5037.85  8.1102e-17 
 5039.375 7.4718e-17 
 5040.9   8.2809e-17 
 5042.425 8.008e-17  
 5043.95  7.5188e-17 
 5045.475 7.6372e-17 
 5047.0   8.0282e-17 
 5048.525 7.6069e-17 
 5050.05  8.1378e-17 
 5051.575 8.8763e-17 
 5053.1   7.8347e-17 
 5054.625 8.017e-17  
 5056.15  7.5184e-17 
 5057.675 7.7419e-17 
 5059.2   8.0616e-17 
 5060.725 7.988e-17  
 5062.25  8.0167e-17 
 5063.775 8.3063e-17 
 5065.3   7.7163e-17 
 5066.825 7.9422e-17 
 5068.35  8.2629e-17 
 5069.875 8.7793e-17 
 5071.4   8.4808e-17 
 5072.925 8.1416e-17 
 5074.45  8.2493e-17 
 5075.975 7.6393e-17 
 5077.5   7.5634e-17 
 5079.025 7.9045e-17 
 5080.55  7.9496e-17 
 5082.075 8.7007e-17 
 5083.6   8.2615e-17 
 5085.125 8.4683e-17 
 5086.65  8.4079e-17 
 5088.175 8.2389e-17 
 5089.7   9.1889e-17 
 5091.225 8.6414e-17 
 5092.75  7.9493e-17 
 5094.275 8.0513e-17 
 5095.8   8.2286e-17 
 5097.325 7.5691e-17 
 5098.85  7.6649e-17 
 5100.375 7.8074e-17 
 5101.9   8.2638e-17 
 5103.425 8.7964e-17 
 5104.95  8.246e-17  
 5106.475 8.2684e-17 
 5108.0   8.2027e-17 
 5109.525 7.4995e-17 
 5111.05  8.3281e-17 
 5112.575 7.9061e-17 
 5114.1   7.9852e-17 
 5115.625 7.1401e-17 
 5117.15  7.8626e-17 
 5118.675 8.1695e-17 
 5120.2   8.1124e-17 
 5121.725 8.4246e-17 
 5123.25  8.5502e-17 
 5124.775 8.5243e-17 
 5126.3   7.8961e-17 
 5127.825 8.081e-17  
 5129.35  7.8403e-17 
 5130.875 7.9381e-17 
 5132.4   8.5752e-17 
 5133.925 8.9907e-17 
 5135.45  9.0398e-17 
 5136.975 8.5848e-17 
 5138.5   8.5696e-17 
 5140.025 7.5932e-17 
 5141.55  8.3223e-17 
 5143.075 8.0318e-17 
 5144.6   8.1701e-17 
 5146.125 8.7982e-17 
 5147.65  9.158e-17  
 5149.175 7.6384e-17 
 5150.7   7.9232e-17 
 5152.225 8.4775e-17 
 5153.75  8.5056e-17 
 5155.275 8.6843e-17 
 5156.8   8.5831e-17 
 5158.325 7.5596e-17 
 5159.85  8.3601e-17 
 5161.375 8.9285e-17 
 5162.9   8.3518e-17 
 5164.425 8.2282e-17 
 5165.95  8.4739e-17 
 5167.475 9.4655e-17 
 5169.0   9.8821e-17 
 5170.525 9.3522e-17 
 5172.05  8.813e-17  
 5173.575 9.1285e-17 
 5175.1   8.3461e-17 
 5176.625 8.3975e-17 
 5178.15  8.8737e-17 
 5179.675 8.2321e-17 
 5181.2   8.8905e-17 
 5182.725 8.3469e-17 
 5184.25  8.8556e-17 
 5185.775 8.3116e-17 
 5187.3   7.7279e-17 
 5188.825 7.9813e-17 
 5190.35  8.0742e-17 
 5191.875 8.5757e-17 
 5193.4   7.8016e-17 
 5194.925 8.4432e-17 
 5196.45  8.0195e-17 
 5197.975 8.415e-17  
 5199.5   7.7615e-17 
 5201.025 8.1465e-17 
 5202.55  7.5945e-17 
 5204.075 7.7446e-17 
 5205.6   8.6485e-17 
 5207.125 8.3706e-17 
 5208.65  9.2957e-17 
 5210.175 9.4786e-17 
 5211.7   8.8997e-17 
 5213.225 9.0493e-17 
 5214.75  8.7708e-17 
 5216.275 8.3091e-17 
 5217.8   9.1361e-17 
 5219.325 8.4641e-17 
 5220.85  8.6402e-17 
 5222.375 8.6989e-17 
 5223.9   8.5919e-17 
 5225.425 8.3603e-17 
 5226.95  9.0082e-17 
 5228.475 8.7653e-17 
 5230.0   9.2721e-17 
 5231.525 8.1058e-17 
 5233.05  7.3022e-17 
 5234.575 8.5801e-17 
 5236.1   8.9645e-17 
 5237.625 9.2401e-17 
 5239.15  9.2185e-17 
 5240.675 8.4613e-17 
 5242.2   8.3015e-17 
 5243.725 8.2605e-17 
 5245.25  9.2442e-17 
 5246.775 9.1762e-17 
 5248.3   8.8295e-17 
 5249.825 8.5818e-17 
 5251.35  8.1586e-17 
 5252.875 8.4607e-17 
 5254.4   1.0452e-16 
 5255.925 9.7953e-17 
 5257.45  8.4525e-17 
 5258.975 7.9977e-17 
 5260.5   8.6305e-17 
 5262.025 8.8146e-17 
 5263.55  9.5994e-17 
 5265.075 1.0167e-16 
 5266.6   9.1714e-17 
 5268.125 9.1982e-17 
 5269.65  8.6763e-17 
 5271.175 8.1384e-17 
 5272.7   8.2865e-17 
 5274.225 8.7071e-17 
 5275.75  8.9058e-17 
 5277.275 8.6005e-17 
 5278.8   8.6187e-17 
 5280.325 8.4712e-17 
 5281.85  8.9526e-17 
 5283.375 9.2968e-17 
 5284.9   7.7618e-17 
 5286.425 8.5253e-17 
 5287.95  9.3391e-17 
 5289.475 1.0357e-16 
 5291.0   8.7923e-17 
 5292.525 8.2923e-17 
 5294.05  9.2778e-17 
 5295.575 8.3718e-17 
 5297.1   8.8101e-17 
 5298.625 8.8829e-17 
 5300.15  9.1144e-17 
 5301.675 8.6178e-17 
 5303.2   7.7353e-17 
 5304.725 8.2358e-17 
 5306.25  8.4747e-17 
 5307.775 8.8482e-17 
 5309.3   8.6049e-17 
 5310.825 8.6034e-17 
 5312.35  9.0647e-17 
 5313.875 8.5279e-17 
 5315.4   8.6254e-17 
 5316.925 8.3887e-17 
 5318.45  7.9495e-17 
 5319.975 7.7661e-17 
 5321.5   8.9372e-17 
 5323.025 7.9252e-17 
 5324.55  8.0503e-17 
 5326.075 9.1167e-17 
 5327.6   8.832e-17  
 5329.125 8.7307e-17 
 5330.65  8.4106e-17 
 5332.175 8.189e-17  
 5333.7   8.6795e-17 
 5335.225 9.2496e-17 
 5336.75  1.0652e-16 
 5338.275 8.195e-17  
 5339.8   7.9699e-17 
 5341.325 7.6421e-17 
 5342.85  8.6168e-17 
 5344.375 8.9753e-17 
 5345.9   8.8834e-17 
 5347.425 9.1718e-17 
 5348.95  8.6024e-17 
 5350.475 9.669e-17  
 5352.0   8.5374e-17 
 5353.525 7.9467e-17 
 5355.05  8.2492e-17 
 5356.575 8.6235e-17 
 5358.1   8.3171e-17 
 5359.625 8.2618e-17 
 5361.15  8.8131e-17 
 5362.675 7.7179e-17 
 5364.2   8.9693e-17 
 5365.725 8.4911e-17 
 5367.25  9.4248e-17 
 5368.775 9.8715e-17 
 5370.3   8.1294e-17 
 5371.825 7.6856e-17 
 5373.35  8.3683e-17 
 5374.875 8.6863e-17 
 5376.4   9.5902e-17 
 5377.925 9.5047e-17 
 5379.45  9.0536e-17 
 5380.975 8.0747e-17 
 5382.5   7.5523e-17 
 5384.025 8.4006e-17 
 5385.55  7.5197e-17 
 5387.075 8.2568e-17 
 5388.6   9.1418e-17 
 5390.125 8.9142e-17 
 5391.65  8.4272e-17 
 5393.175 7.9241e-17 
 5394.7   7.9979e-17 
 5396.225 8.5061e-17 
 5397.75  7.8215e-17 
 5399.275 7.4683e-17 
 5400.8   7.8137e-17 
 5402.325 7.5319e-17 
 5403.85  9.0381e-17 
 5405.375 7.9455e-17 
 5406.9   7.707e-17  
 5408.425 6.8734e-17 
 5409.95  8.2214e-17 
 5411.475 8.3612e-17 
 5413.0   9.3107e-17 
 5414.525 9.4928e-17 
 5416.05  9.6497e-17 
 5417.575 9.5484e-17 
 5419.1   7.3552e-17 
 5420.625 7.2709e-17 
 5422.15  8.8139e-17 
 5423.675 9.6792e-17 
 5425.2   8.8191e-17 
 5426.725 9.3439e-17 
 5428.25  9.2444e-17 
 5429.775 8.4573e-17 
 5431.3   9.657e-17  
 5432.825 9.9488e-17 
 5434.35  8.1258e-17 
 5435.875 9.6449e-17 
 5437.4   1.0244e-16 
 5438.925 8.8823e-17 
 5440.45  7.5019e-17 
 5441.975 8.1129e-17 
 5443.5   8.5673e-17 
 5445.025 9.2642e-17 
 5446.55  9.5954e-17 
 5448.075 8.6911e-17 
 5449.6   9.2547e-17 
 5451.125 8.5152e-17 
 5452.65  9.2155e-17 
 5454.175 1.0132e-16 
 5455.7   9.1406e-17 
 5457.225 9.6027e-17 
 5458.75  8.5727e-17 
 5460.275 1.4248e-16 
 5461.8   1.1084e-16 
 5463.325 6.6676e-17 
 5464.85  8.1654e-17 
 5466.375 7.9909e-17 
 5467.9   8.007e-17  
 5469.425 9.4639e-17 
 5470.95  1.0483e-16 
 5472.475 9.045e-17  
 5474.0   8.3602e-17 
 5475.525 9.1235e-17 
 5477.05  8.6935e-17 
 5478.575 8.3329e-17 
 5480.1   8.6629e-17 
 5481.625 1.0584e-16 
 5483.15  1.0312e-16 
 5484.675 8.0628e-17 
 5486.2   8.4648e-17 
 5487.725 7.3668e-17 
 5489.25  8.873e-17  
 5490.775 1.0243e-16 
 5492.3   8.9683e-17 
 5493.825 8.7229e-17 
 5495.35  7.5e-17    
 5496.875 7.6773e-17 
 5498.4   9.2161e-17 
 5499.925 9.006e-17  
 5501.45  9.0399e-17 
 5502.975 8.982e-17  
 5504.5   9.4051e-17 
 5506.025 9.6518e-17 
 5507.55  9.7434e-17 
 5509.075 8.8566e-17 
 5510.6   9.4102e-17 
 5512.125 9.4899e-17 
 5513.65  9.0295e-17 
 5515.175 8.4867e-17 
 5516.7   8.2214e-17 
 5518.225 8.6042e-17 
 5519.75  9.1738e-17 
 5521.275 9.0697e-17 
 5522.8   9.2459e-17 
 5524.325 9.5149e-17 
 5525.85  9.7408e-17 
 5527.375 9.7917e-17 
 5528.9   9.4114e-17 
 5530.425 9.6712e-17 
 5531.95  9.5965e-17 
 5533.475 8.5118e-17 
 5535.0   8.7761e-17 
 5536.525 9.1871e-17 
 5538.05  8.8386e-17 
 5539.575 8.7029e-17 
 5541.1   9.4737e-17 
 5542.625 9.8354e-17 
 5544.15  8.7352e-17 
 5545.675 8.3362e-17 
 5547.2   9.0969e-17 
 5548.725 9.099e-17  
 5550.25  8.9462e-17 
 5551.775 8.4919e-17 
 5553.3   8.1343e-17 
 5554.825 8.4793e-17 
 5556.35  8.4894e-17 
 5557.875 8.4306e-17 
 5559.4   8.2857e-17 
 5560.925 8.5041e-17 
 5562.45  8.8806e-17 
 5563.975 8.9441e-17 
 5565.5   8.2721e-17 
 5567.025 8.2017e-17 
 5568.55  8.1635e-17 
 5570.075 8.0814e-17 
 5571.6   7.9078e-17 
 5573.125 8.4548e-17 
 5574.65  6.9171e-17 
 5576.175 7.6389e-17 
 5577.7   7.8532e-17 
 5579.225 8.2574e-17 
 5580.75  8.0848e-17 
 5582.275 7.6439e-17 
 5583.8   8.2725e-17 
 5585.325 8.1709e-17 
 5586.85  7.5606e-17 
 5588.375 7.9288e-17 
 5589.9   8.6894e-17 
 5591.425 8.2006e-17 
 5592.95  7.9382e-17 
 5594.475 8.4037e-17 
 5596.0   7.783e-17  
 5597.525 8.3013e-17 
 5599.05  8.9958e-17 
 5600.575 8.9736e-17 
 5602.1   8.0741e-17 
 5603.625 7.8482e-17 
 5605.15  8.2849e-17 
 5606.675 8.6009e-17 
 5608.2   8.5636e-17 
 5609.725 8.7081e-17 
 5611.25  8.8297e-17 
 5612.775 8.4421e-17 
 5614.3   8.0807e-17 
 5615.825 8.6433e-17 
 5617.35  8.62e-17   
 5618.875 8.0606e-17 
 5620.4   8.5955e-17 
 5621.925 8.7394e-17 
 5623.45  8.6991e-17 
 5624.975 8.5959e-17 
 5626.5   8.9137e-17 
 5628.025 8.7085e-17 
 5629.55  9.2674e-17 
 5631.075 8.8994e-17 
 5632.6   9.07e-17   
 5634.125 8.8237e-17 
 5635.65  7.961e-17  
 5637.175 7.8665e-17 
 5638.7   7.8271e-17 
 5640.225 7.9429e-17 
 5641.75  7.8426e-17 
 5643.275 8.1093e-17 
 5644.8   8.6247e-17 
 5646.325 8.5231e-17 
 5647.85  7.9676e-17 
 5649.375 8.0364e-17 
 5650.9   8.2577e-17 
 5652.425 8.9349e-17 
 5653.95  9.1852e-17 
 5655.475 8.9192e-17 
 5657.0   8.98e-17   
 5658.525 8.4e-17    
 5660.05  8.0647e-17 
 5661.575 8.1714e-17 
 5663.1   8.3294e-17 
 5664.625 8.8129e-17 
 5666.15  8.9947e-17 
 5667.675 9.249e-17  
 5669.2   9.6111e-17 
 5670.725 9.1515e-17 
 5672.25  8.7607e-17 
 5673.775 8.4126e-17 
 5675.3   7.4934e-17 
 5676.825 8.8092e-17 
 5678.35  8.9837e-17 
 5679.875 8.0572e-17 
 5681.4   7.6404e-17 
 5682.925 8.0377e-17 
 5684.45  8.1824e-17 
 5685.975 8.3374e-17 
 5687.5   8.7501e-17 
 5689.025 9.1868e-17 
 5690.55  8.9989e-17 
 5692.075 9.3236e-17 
 5693.6   9.0068e-17 
 5695.125 7.777e-17  
 5696.65  7.7747e-17 
 5698.175 8.4905e-17 
 5699.7   8.6263e-17 
 5701.225 8.3689e-17 
 5702.75  8.382e-17  
 5704.275 7.7842e-17 
 5705.8   7.5929e-17 
 5707.325 8.6246e-17 
 5708.85  9.4246e-17 
 5710.375 8.8682e-17 
 5711.9   8.0422e-17 
 5713.425 7.9622e-17 
 5714.95  7.9234e-17 
 5716.475 8.6802e-17 
 5718.0   9.3588e-17 
 5719.525 9.0125e-17 
 5721.05  8.4774e-17 
 5722.575 7.8556e-17 
 5724.1   8.1159e-17 
 5725.625 8.8044e-17 
 5727.15  8.4037e-17 
 5728.675 7.5388e-17 
 5730.2   8.1551e-17 
 5731.725 8.3459e-17 
 5733.25  7.9694e-17 
 5734.775 7.8653e-17 
 5736.3   8.0855e-17 
 5737.825 8.7458e-17 
 5739.35  9.3137e-17 
 5740.875 9.6816e-17 
 5742.4   1.0091e-16 
 5743.925 9.9809e-17 
 5745.45  9.179e-17  
 5746.975 8.1761e-17 
 5748.5   7.6784e-17 
 5750.025 7.5289e-17 
 5751.55  7.8431e-17 
 5753.075 8.0692e-17 
 5754.6   7.8539e-17 
 5756.125 7.5043e-17 
 5757.65  7.3793e-17 
 5759.175 7.316e-17  
 5760.7   7.858e-17  
 5762.225 8.3036e-17 
 5763.75  7.9972e-17 
 5765.275 7.9462e-17 
 5766.8   8.4618e-17 
 5768.325 8.69e-17   
 5769.85  8.0235e-17 
 5771.375 7.1739e-17 
 5772.9   7.204e-17  
 5774.425 7.5889e-17 
 5775.95  7.6079e-17 
 5777.475 7.7654e-17 
 5779.0   8.1871e-17 
 5780.525 7.8777e-17 
 5782.05  7.8943e-17 
 5783.575 7.8085e-17 
 5785.1   7.5816e-17 
 5786.625 8.2079e-17 
 5788.15  8.5981e-17 
 5789.675 8.729e-17  
 5791.2   8.6424e-17 
 5792.725 8.5128e-17 
 5794.25  8.5819e-17 
 5795.775 8.3367e-17 
 5797.3   8.1181e-17 
 5798.825 8.2221e-17 
 5800.35  8.4552e-17 
 5801.875 8.4813e-17 
 5803.4   8.576e-17  
 5804.925 8.583e-17  
 5806.45  8.1713e-17 
 5807.975 7.7627e-17 
 5809.5   7.578e-17  
 5811.025 7.7928e-17 
 5812.55  8.2389e-17 
 5814.075 8.3616e-17 
 5815.6   8.3945e-17 
 5817.125 8.2338e-17 
 5818.65  8.0935e-17 
 5820.175 7.9686e-17 
 5821.7   7.3114e-17 
 5823.225 6.7977e-17 
 5824.75  7.4e-17    
 5826.275 7.638e-17  
 5827.8   7.5354e-17 
 5829.325 7.9364e-17 
 5830.85  7.6338e-17 
 5832.375 7.7126e-17 
 5833.9   8.1311e-17 
 5835.425 7.847e-17  
 5836.95  7.4025e-17 
 5838.475 7.3492e-17 
 5840.0   7.7765e-17 
 5841.525 7.538e-17  
 5843.05  7.4162e-17 
 5844.575 7.9496e-17 
 5846.1   7.8933e-17 
 5847.625 7.8583e-17 
 5849.15  8.1979e-17 
 5850.675 7.8797e-17 
 5852.2   7.4531e-17 
 5853.725 7.7425e-17 
 5855.25  7.9766e-17 
 5856.775 8.2696e-17 
 5858.3   8.2798e-17 
 5859.825 8.0633e-17 
 5861.35  7.9489e-17 
 5862.875 7.9929e-17 
 5864.4   7.7111e-17 
 5865.925 8.011e-17  
 5867.45  7.7842e-17 
 5868.975 8.0823e-17 
 5870.5   8.1514e-17 
 5872.025 7.7397e-17 
 5873.55  7.3348e-17 
 5875.075 7.4719e-17 
 5876.6   7.7809e-17 
 5878.125 7.4269e-17 
 5879.65  7.9005e-17 
 5881.175 7.9296e-17 
 5882.7   6.5907e-17 
 5884.225 7.0642e-17 
 5885.75  7.8607e-17 
 5887.275 7.1599e-17 
 5888.8   7.6813e-17 
 5890.325 7.5575e-17 
 5891.85  6.9936e-17 
 5893.375 7.4216e-17 
 5894.9   7.3144e-17 
 5896.425 6.9679e-17 
 5897.95  6.9874e-17 
 5899.475 7.0582e-17 
 5901.0   6.6537e-17 
 5902.525 6.0212e-17 
 5904.05  6.2118e-17 
 5905.575 6.9355e-17 
 5907.1   7.4815e-17 
 5908.625 7.1634e-17 
 5910.15  7.4819e-17 
 5911.675 7.5438e-17 
 5913.2   7.6235e-17 
 5914.725 8.0409e-17 
 5916.25  7.6582e-17 
 5917.775 7.7781e-17 
 5919.3   7.7949e-17 
 5920.825 7.1236e-17 
 5922.35  7.3363e-17 
 5923.875 7.6295e-17 
 5925.4   6.946e-17  
 5926.925 6.8387e-17 
 5928.45  7.0409e-17 
 5929.975 6.7186e-17 
 5931.5   6.6861e-17 
 5933.025 6.5312e-17 
 5934.55  6.4838e-17 
 5936.075 6.9896e-17 
 5937.6   6.8943e-17 
 5939.125 7.261e-17  
 5940.65  7.8327e-17 
 5942.175 7.3104e-17 
 5943.7   6.7167e-17 
 5945.225 7.124e-17  
 5946.75  8.0572e-17 
 5948.275 7.8064e-17 
 5949.8   7.761e-17  
 5951.325 7.3699e-17 
 5952.85  7.1155e-17 
 5954.375 7.5512e-17 
 5955.9   7.5251e-17 
 5957.425 7.7257e-17 
 5958.95  7.2203e-17 
 5960.475 6.9174e-17 
 5962.0   6.7039e-17 
 5963.525 6.9622e-17 
 5965.05  7.4074e-17 
 5966.575 7.3499e-17 
 5968.1   6.4328e-17 
 5969.625 6.1782e-17 
 5971.15  6.6373e-17 
 5972.675 6.6611e-17 
 5974.2   6.5274e-17 
 5975.725 6.6908e-17 
 5977.25  6.6755e-17 
 5978.775 7.1797e-17 
 5980.3   7.3765e-17 
 5981.825 7.2873e-17 
 5983.35  7.4298e-17 
 5984.875 7.316e-17  
 5986.4   7.0646e-17 
 5987.925 7.2432e-17 
 5989.45  7.5226e-17 
 5990.975 7.0063e-17 
 5992.5   6.956e-17  
 5994.025 6.826e-17  
 5995.55  6.7253e-17 
 5997.075 6.7623e-17 
 5998.6   7.07e-17   
 6000.125 7.8089e-17 
 6001.65  8.2514e-17 
 6003.175 7.6401e-17 
 6004.7   7.2734e-17 
 6006.225 7.1291e-17 
 6007.75  7.558e-17  
 6009.275 7.3635e-17 
 6010.8   6.6805e-17 
 6012.325 6.4916e-17 
 6013.85  6.8191e-17 
 6015.375 6.9248e-17 
 6016.9   6.9669e-17 
 6018.425 7.185e-17  
 6019.95  7.8371e-17 
 6021.475 8.1329e-17 
 6023.0   7.4711e-17 
 6024.525 7.5205e-17 
 6026.05  8.0824e-17 
 6027.575 7.6967e-17 
 6029.1   7.5807e-17 
 6030.625 7.2193e-17 
 6032.15  7.4162e-17 
 6033.675 7.9638e-17 
 6035.2   7.1955e-17 
 6036.725 6.8477e-17 
 6038.25  6.7643e-17 
 6039.775 6.1863e-17 
 6041.3   6.2359e-17 
 6042.825 6.7967e-17 
 6044.35  6.7699e-17 
 6045.875 6.7109e-17 
 6047.4   6.7496e-17 
 6048.925 7.1038e-17 
 6050.45  7.4689e-17 
 6051.975 7.2413e-17 
 6053.5   6.7922e-17 
 6055.025 7.0446e-17 
 6056.55  7.3847e-17 
 6058.075 7.6123e-17 
 6059.6   7.389e-17  
 6061.125 7.2574e-17 
 6062.65  7.4845e-17 
 6064.175 7.832e-17  
 6065.7   7.6387e-17 
 6067.225 7.5533e-17 
 6068.75  8.0977e-17 
 6070.275 7.8134e-17 
 6071.8   7.1416e-17 
 6073.325 7.747e-17  
 6074.85  7.2186e-17 
 6076.375 6.3667e-17 
 6077.9   6.7894e-17 
 6079.425 7.561e-17  
 6080.95  8.0099e-17 
 6082.475 8.7707e-17 
 6084.0   8.5598e-17 
 6085.525 8.4414e-17 
 6087.05  8.867e-17  
 6088.575 8.2913e-17 
 6090.1   7.775e-17  
 6091.625 7.7474e-17 
 6093.15  7.3353e-17 
 6094.675 7.3674e-17 
 6096.2   7.2376e-17 
 6097.725 6.9955e-17 
 6099.25  7.1226e-17 
 6100.775 7.4875e-17 
 6102.3   7.289e-17  
 6103.825 7.042e-17  
 6105.35  7.2954e-17 
 6106.875 6.8802e-17 
 6108.4   6.5375e-17 
 6109.925 6.5338e-17 
 6111.45  6.6268e-17 
 6112.975 6.6794e-17 
 6114.5   6.0254e-17 
 6116.025 6.403e-17  
 6117.55  7.366e-17  
 6119.075 6.6919e-17 
 6120.6   6.5763e-17 
 6122.125 7.3184e-17 
 6123.65  7.4084e-17 
 6125.175 7.3339e-17 
 6126.7   7.666e-17  
 6128.225 7.2408e-17 
 6129.75  6.9335e-17 
 6131.275 7.8207e-17 
 6132.8   7.9862e-17 
 6134.325 7.335e-17  
 6135.85  6.8774e-17 
 6137.375 6.7873e-17 
 6138.9   6.7808e-17 
 6140.425 7.0787e-17 
 6141.95  7.2172e-17 
 6143.475 7.1601e-17 
 6145.0   7.3453e-17 
 6146.525 7.239e-17  
 6148.05  7.0155e-17 
 6149.575 7.2318e-17 
 6151.1   6.9005e-17 
 6152.625 7.2356e-17 
 6154.15  7.2522e-17 
 6155.675 6.8198e-17 
 6157.2   6.8981e-17 
 6158.725 7.6074e-17 
 6160.25  7.5277e-17 
 6161.775 7.1715e-17 
 6163.3   7.0934e-17 
 6164.825 7.0913e-17 
 6166.35  7.1754e-17 
 6167.875 6.6606e-17 
 6169.4   6.6357e-17 
 6170.925 7.6712e-17 
 6172.45  8.0967e-17 
 6173.975 7.8529e-17 
 6175.5   7.3134e-17 
 6177.025 6.9732e-17 
 6178.55  7.0347e-17 
 6180.075 6.9512e-17 
 6181.6   6.95e-17   
 6183.125 7.2866e-17 
 6184.65  7.1066e-17 
 6186.175 7.0525e-17 
 6187.7   7.2689e-17 
 6189.225 7.2236e-17 
 6190.75  6.8262e-17 
 6192.275 7.2281e-17 
 6193.8   7.568e-17  
 6195.325 6.8737e-17 
 6196.85  6.8235e-17 
 6198.375 6.7148e-17 
 6199.9   6.6994e-17 
 6201.425 6.9566e-17 
 6202.95  6.8033e-17 
 6204.475 6.7515e-17 
 6206.0   7.5069e-17 
 6207.525 7.7864e-17 
 6209.05  7.1615e-17 
 6210.575 6.9751e-17 
 6212.1   7.1975e-17 
 6213.625 6.7945e-17 
 6215.15  6.7988e-17 
 6216.675 7.3673e-17 
 6218.2   6.8275e-17 
 6219.725 6.7053e-17 
 6221.25  6.9496e-17 
 6222.775 7.1409e-17 
 6224.3   7.155e-17  
 6225.825 7.313e-17  
 6227.35  6.7925e-17 
 6228.875 6.8756e-17 
 6230.4   6.8402e-17 
 6231.925 7.1177e-17 
 6233.45  7.3087e-17 
 6234.975 6.9235e-17 
 6236.5   7.366e-17  
 6238.025 7.6116e-17 
 6239.55  7.231e-17  
 6241.075 7.0839e-17 
 6242.6   7.1768e-17 
 6244.125 6.6604e-17 
 6245.65  6.9434e-17 
 6247.175 7.478e-17  
 6248.7   7.4398e-17 
 6250.225 7.365e-17  
 6251.75  6.6498e-17 
 6253.275 6.6494e-17 
 6254.8   7.4323e-17 
 6256.325 7.2433e-17 
 6257.85  7.166e-17  
 6259.375 6.9089e-17 
 6260.9   7.0498e-17 
 6262.425 7.2514e-17 
 6263.95  6.7073e-17 
 6265.475 6.8184e-17 
 6267.0   7.0919e-17 
 6268.525 7.0518e-17 
 6270.05  6.9463e-17 
 6271.575 7.3249e-17 
 6273.1   7.499e-17  
 6274.625 7.5488e-17 
 6276.15  7.8299e-17 
 6277.675 7.6579e-17 
 6279.2   6.4493e-17 
 6280.725 6.3809e-17 
 6282.25  6.8671e-17 
 6283.775 6.9337e-17 
 6285.3   7.4445e-17 
 6286.825 7.247e-17  
 6288.35  7.003e-17  
 6289.875 6.9073e-17 
 6291.4   6.787e-17  
 6292.925 6.8284e-17 
 6294.45  6.8666e-17 
 6295.975 7.2156e-17 
 6297.5   7.7531e-17 
 6299.025 8.2446e-17 
 6300.55  7.3548e-17 
 6302.075 6.9924e-17 
 6303.6   6.6493e-17 
 6305.125 6.2436e-17 
 6306.65  7.0342e-17 
 6308.175 7.265e-17  
 6309.7   7.3894e-17 
 6311.225 7.3705e-17 
 6312.75  6.9258e-17 
 6314.275 6.2424e-17 
 6315.8   6.3025e-17 
 6317.325 7.0314e-17 
 6318.85  7.0915e-17 
 6320.375 7.1838e-17 
 6321.9   7.1674e-17 
 6323.425 6.8643e-17 
 6324.95  7.3239e-17 
 6326.475 7.6125e-17 
 6328.0   7.1854e-17 
 6329.525 7.4914e-17 
 6331.05  7.477e-17  
 6332.575 7.208e-17  
 6334.1   7.2408e-17 
 6335.625 7.3017e-17 
 6337.15  6.9547e-17 
 6338.675 7.0236e-17 
 6340.2   7.2964e-17 
 6341.725 6.9719e-17 
 6343.25  6.7786e-17 
 6344.775 6.6487e-17 
 6346.3   6.7578e-17 
 6347.825 6.7533e-17 
 6349.35  6.7109e-17 
 6350.875 7.2215e-17 
 6352.4   7.1407e-17 
 6353.925 7.0122e-17 
 6355.45  6.7422e-17 
 6356.975 6.3934e-17 
 6358.5   6.9096e-17 
 6360.025 7.017e-17  
 6361.55  6.7005e-17 
 6363.075 7.2192e-17 
 6364.6   7.7645e-17 
 6366.125 7.6651e-17 
 6367.65  7.5936e-17 
 6369.175 7.4841e-17 
 6370.7   7.3723e-17 
 6372.225 7.4624e-17 
 6373.75  7.6518e-17 
 6375.275 7.6831e-17 
 6376.8   7.264e-17  
 6378.325 7.0743e-17 
 6379.85  7.2328e-17 
 6381.375 7.0013e-17 
 6382.9   6.5582e-17 
 6384.425 6.7883e-17 
 6385.95  7.3735e-17 
 6387.475 7.4633e-17 
 6389.0   6.5439e-17 
 6390.525 6.532e-17  
 6392.05  6.9687e-17 
 6393.575 6.8786e-17 
 6395.1   6.8389e-17 
 6396.625 6.7927e-17 
 6398.15  6.8695e-17 
 6399.675 6.9905e-17 
 6401.2   6.9354e-17 
 6402.725 7.1907e-17 
 6404.25  7.6105e-17 
 6405.775 7.3437e-17 
 6407.3   6.8777e-17 
 6408.825 6.7353e-17 
 6410.35  6.9046e-17 
 6411.875 6.7064e-17 
 6413.4   6.6005e-17 
 6414.925 6.7423e-17 
 6416.45  6.6556e-17 
 6417.975 6.6671e-17 
 6419.5   6.8243e-17 
 6421.025 6.9871e-17 
 6422.55  7.0464e-17 
 6424.075 6.6987e-17 
 6425.6   6.7143e-17 
 6427.125 6.7875e-17 
 6428.65  6.4115e-17 
 6430.175 6.7127e-17 
 6431.7   7.1833e-17 
 6433.225 7.4176e-17 
 6434.75  7.5632e-17 
 6436.275 7.1184e-17 
 6437.8   7.016e-17  
 6439.325 7.2562e-17 
 6440.85  7.3167e-17 
 6442.375 7.3476e-17 
 6443.9   7.0863e-17 
 6445.425 6.6911e-17 
 6446.95  6.4252e-17 
 6448.475 6.545e-17  
 6450.0   6.8061e-17 
 6451.525 7.0037e-17 
 6453.05  7.0988e-17 
 6454.575 6.9462e-17 
 6456.1   6.7214e-17 
 6457.625 6.8255e-17 
 6459.15  7.05e-17   
 6460.675 6.7031e-17 
 6462.2   6.3955e-17 
 6463.725 6.5838e-17 
 6465.25  6.7488e-17 
 6466.775 7.2451e-17 
 6468.3   7.3383e-17 
 6469.825 7.1034e-17 
 6471.35  6.986e-17  
 6472.875 6.8109e-17 
 6474.4   6.9816e-17 
 6475.925 7.1895e-17 
 6477.45  6.9218e-17 
 6478.975 6.4766e-17 
 6480.5   6.5002e-17 
 6482.025 6.7194e-17 
 6483.55  6.7457e-17 
 6485.075 6.4676e-17 
 6486.6   6.3861e-17 
 6488.125 6.6555e-17 
 6489.65  6.6658e-17 
 6491.175 6.6312e-17 
 6492.7   6.7371e-17 
 6494.225 6.5131e-17 
 6495.75  6.2161e-17 
 6497.275 7.0136e-17 
 6498.8   7.2379e-17 
 6500.325 6.8539e-17 
 6501.85  7.17e-17   
 6503.375 7.2671e-17 
 6504.9   7.0916e-17 
 6506.425 7.1619e-17 
 6507.95  7.179e-17  
 6509.475 7.0416e-17 
 6511.0   7.0621e-17 
 6512.525 6.9406e-17 
 6514.05  6.8893e-17 
 6515.575 6.8213e-17 
 6517.1   6.6658e-17 
 6518.625 6.881e-17  
 6520.15  6.9129e-17 
 6521.675 6.2658e-17 
 6523.2   6.3432e-17 
 6524.725 6.9134e-17 
 6526.25  7.0732e-17 
 6527.775 7.0711e-17 
 6529.3   6.9629e-17 
 6530.825 6.9219e-17 
 6532.35  6.7549e-17 
 6533.875 6.6571e-17 
 6535.4   6.7538e-17 
 6536.925 6.8699e-17 
 6538.45  6.635e-17  
 6539.975 6.3998e-17 
 6541.5   6.5361e-17 
 6543.025 6.6561e-17 
 6544.55  6.9829e-17 
 6546.075 7.247e-17  
 6547.6   6.7703e-17 
 6549.125 6.4533e-17 
 6550.65  7.1728e-17 
 6552.175 7.495e-17  
 6553.7   7.4359e-17 
 6555.225 7.6662e-17 
 6556.75  7.6757e-17 
 6558.275 8.1938e-17 
 6559.8   8.2771e-17 
 6561.325 7.6922e-17 
 6562.85  8.103e-17  
 6564.375 8.0647e-17 
 6565.9   7.4863e-17 
 6567.425 7.6303e-17 
 6568.95  7.6895e-17 
 6570.475 7.4312e-17 
 6572.0   7.3789e-17 
 6573.525 7.431e-17  
 6575.05  7.2243e-17 
 6576.575 6.9132e-17 
 6578.1   6.418e-17  
 6579.625 6.3778e-17 
 6581.15  6.8649e-17 
 6582.675 7.0704e-17 
 6584.2   6.9801e-17 
 6585.725 7.0133e-17 
 6587.25  7.0862e-17 
 6588.775 7.187e-17  
 6590.3   7.2883e-17 
 6591.825 7.2622e-17 
 6593.35  7.219e-17  
 6594.875 7.2072e-17 
 6596.4   6.9085e-17 
 6597.925 6.359e-17  
 6599.45  6.705e-17  
 6600.975 7.3503e-17 
 6602.5   7.2159e-17 
 6604.025 6.8515e-17 
 6605.55  6.6816e-17 
 6607.075 6.754e-17  
 6608.6   6.8971e-17 
 6610.125 7.2171e-17 
 6611.65  7.2427e-17 
 6613.175 6.5136e-17 
 6614.7   6.8255e-17 
 6616.225 7.5505e-17 
 6617.75  7.242e-17  
 6619.275 6.4557e-17 
 6620.8   6.5812e-17 
 6622.325 7.0237e-17 
 6623.85  7.0159e-17 
 6625.375 7.0477e-17 
 6626.9   6.9398e-17 
 6628.425 6.6899e-17 
 6629.95  6.7276e-17 
 6631.475 6.8324e-17 
 6633.0   6.7561e-17 
 6634.525 6.6605e-17 
 6636.05  6.9279e-17 
 6637.575 6.8221e-17 
 6639.1   6.4462e-17 
 6640.625 6.6897e-17 
 6642.15  7.0155e-17 
 6643.675 6.9903e-17 
 6645.2   6.9505e-17 
 6646.725 7.0471e-17 
 6648.25  7.3274e-17 
 6649.775 7.151e-17  
 6651.3   6.7069e-17 
 6652.825 6.6699e-17 
 6654.35  7.0568e-17 
 6655.875 6.9383e-17 
 6657.4   6.9989e-17 
 6658.925 6.8847e-17 
 6660.45  6.8987e-17 
 6661.975 6.8639e-17 
 6663.5   6.6312e-17 
 6665.025 6.6012e-17 
 6666.55  7.0412e-17 
 6668.075 6.8464e-17 
 6669.6   7.1109e-17 
 6671.125 7.6464e-17 
 6672.65  6.8725e-17 
 6674.175 6.8422e-17 
 6675.7   6.886e-17  
 6677.225 6.8798e-17 
 6678.75  7.2245e-17 
 6680.275 7.101e-17  
 6681.8   6.9695e-17 
 6683.325 7.0831e-17 
 6684.85  7.0249e-17 
 6686.375 7.4356e-17 
 6687.9   7.4394e-17 
 6689.425 7.5046e-17 
 6690.95  7.5711e-17 
 6692.475 7.2939e-17 
 6694.0   6.8026e-17 
 6695.525 7.0125e-17 
 6697.05  7.2524e-17 
 6698.575 7.1366e-17 
 6700.1   7.2041e-17 
 6701.625 7.3375e-17 
 6703.15  7.162e-17  
 6704.675 7.2847e-17 
 6706.2   7.4635e-17 
 6707.725 6.9241e-17 
 6709.25  7.0358e-17 
 6710.775 7.3858e-17 
 6712.3   6.6672e-17 
 6713.825 6.5155e-17 
 6715.35  6.5981e-17 
 6716.875 6.4305e-17 
 6718.4   6.5893e-17 
 6719.925 6.5939e-17 
 6721.45  6.8446e-17 
 6722.975 7.0944e-17 
 6724.5   6.9536e-17 
 6726.025 6.8233e-17 
 6727.55  7.0643e-17 
 6729.075 6.7353e-17 
 6730.6   6.3979e-17 
 6732.125 6.7869e-17 
 6733.65  6.788e-17  
 6735.175 6.6593e-17 
 6736.7   6.5856e-17 
 6738.225 6.5623e-17 
 6739.75  6.7565e-17 
 6741.275 6.7979e-17 
 6742.8   6.7384e-17 
 6744.325 6.3789e-17 
 6745.85  6.7507e-17 
 6747.375 6.9869e-17 
 6748.9   6.8856e-17 
 6750.425 6.9967e-17 
 6751.95  6.6739e-17 
 6753.475 6.2688e-17 
 6755.0   6.2412e-17 
 6756.525 6.0576e-17 
 6758.05  5.9171e-17 
 6759.575 6.0295e-17 
 6761.1   6.4177e-17 
 6762.625 6.2961e-17 
 6764.15  6.3941e-17 
 6765.675 6.8384e-17 
 6767.2   6.9965e-17 
 6768.725 7.1038e-17 
 6770.25  6.8528e-17 
 6771.775 6.6971e-17 
 6773.3   7.1636e-17 
 6774.825 6.9071e-17 
 6776.35  6.7415e-17 
 6777.875 6.6642e-17 
 6779.4   6.4308e-17 
 6780.925 6.5625e-17 
 6782.45  6.6473e-17 
 6783.975 6.4724e-17 
 6785.5   6.6507e-17 
 6787.025 6.8127e-17 
 6788.55  6.9966e-17 
 6790.075 6.7604e-17 
 6791.6   6.6128e-17 
 6793.125 6.6859e-17 
 6794.65  6.821e-17  
 6796.175 6.9178e-17 
 6797.7   7.0232e-17 
 6799.225 6.9902e-17 
 6800.75  6.7134e-17 
 6802.275 6.3412e-17 
 6803.8   6.6682e-17 
 6805.325 7.0685e-17 
 6806.85  6.5261e-17 
 6808.375 6.3593e-17 
 6809.9   6.6334e-17 
 6811.425 6.4425e-17 
 6812.95  6.2319e-17 
 6814.475 6.3853e-17 
 6816.0   6.6665e-17 
 6817.525 6.5705e-17 
 6819.05  6.2411e-17 
 6820.575 6.5307e-17 
 6822.1   6.7923e-17 
 6823.625 6.5492e-17 
 6825.15  6.7422e-17 
 6826.675 6.8255e-17 
 6828.2   6.9066e-17 
 6829.725 6.7144e-17 
 6831.25  6.6575e-17 
 6832.775 6.8369e-17 
 6834.3   7.0545e-17 
 6835.825 6.882e-17  
 6837.35  6.7721e-17 
 6838.875 6.7646e-17 
 6840.4   6.3913e-17 
 6841.925 6.6177e-17 
 6843.45  6.9752e-17 
 6844.975 6.6494e-17 
 6846.5   6.2454e-17 
 6848.025 6.2691e-17 
 6849.55  6.6557e-17 
 6851.075 6.6658e-17 
 6852.6   6.5148e-17 
 6854.125 6.3142e-17 
 6855.65  6.3226e-17 
 6857.175 6.676e-17  
 6858.7   6.5641e-17 
 6860.225 6.5218e-17 
 6861.75  6.2045e-17 
 6863.275 5.969e-17  
 6864.8   6.0259e-17 
 6866.325 5.7554e-17 
 6867.85  5.91e-17   
 6869.375 6.1389e-17 
 6870.9   6.3122e-17 
 6872.425 6.4749e-17 
 6873.95  6.773e-17  
 6875.475 6.8302e-17 
 6877.0   6.5581e-17 
 6878.525 6.5638e-17 
 6880.05  6.5566e-17 
 6881.575 6.233e-17  
 6883.1   6.3613e-17 
 6884.625 6.7507e-17 
 6886.15  6.6786e-17 
 6887.675 6.4031e-17 
 6889.2   6.0569e-17 
 6890.725 6.379e-17  
 6892.25  6.6763e-17 
 6893.775 6.5023e-17 
 6895.3   6.3463e-17 
 6896.825 6.3336e-17 
 6898.35  6.5162e-17 
 6899.875 6.5519e-17 
 6901.4   6.5522e-17 
 6902.925 6.3131e-17 
 6904.45  6.3123e-17 
 6905.975 6.5525e-17 
 6907.5   6.5149e-17 
 6909.025 6.7513e-17 
 6910.55  6.6953e-17 
 6912.075 6.5078e-17 
 6913.6   6.6005e-17 
 6915.125 6.5084e-17 
 6916.65  6.532e-17  
 6918.175 6.5822e-17 
 6919.7   6.3351e-17 
 6921.225 6.2568e-17 
 6922.75  6.5527e-17 
 6924.275 6.6723e-17 
 6925.8   6.2453e-17 
 6927.325 6.3807e-17 
 6928.85  6.4844e-17 
 6930.375 6.4636e-17 
 6931.9   6.4725e-17 
 6933.425 6.3425e-17 
 6934.95  6.5403e-17 
 6936.475 6.5362e-17 
 6938.0   6.4175e-17 
 6939.525 6.173e-17  
 6941.05  5.8313e-17 
 6942.575 5.8639e-17 
 6944.1   6.0295e-17 
 6945.625 6.4032e-17 
 6947.15  6.5634e-17 
 6948.675 6.3436e-17 
 6950.2   6.4072e-17 
 6951.725 6.1689e-17 
 6953.25  6.0815e-17 
 6954.775 6.5517e-17 
 6956.3   6.4979e-17 
 6957.825 6.2574e-17 
 6959.35  6.5152e-17 
 6960.875 6.5945e-17 
 6962.4   6.5534e-17 
 6963.925 6.7828e-17 
 6965.45  6.664e-17  
 6966.975 6.5104e-17 
 6968.5   6.56e-17   
 6970.025 6.7775e-17 
 6971.55  6.4426e-17 
 6973.075 6.4947e-17 
 6974.6   6.5342e-17 
 6976.125 6.4812e-17 
 6977.65  6.7425e-17 
 6979.175 6.8607e-17 
 6980.7   6.7076e-17 
 6982.225 6.654e-17  
 6983.75  6.5789e-17 
 6985.275 6.7052e-17 
 6986.8   6.7507e-17 
 6988.325 6.7223e-17 
 6989.85  6.7563e-17 
 6991.375 6.5822e-17 
 6992.9   6.4774e-17 
 6994.425 6.7854e-17 
 6995.95  6.7498e-17 
 6997.475 6.4494e-17 
 6999.0   6.6e-17    
 7000.525 6.5653e-17 
 7002.05  6.4897e-17 
 7003.575 6.6997e-17 
 7005.1   7.0167e-17 
 7006.625 6.7011e-17 
 7008.15  6.4309e-17 
 7009.675 6.3601e-17 
 7011.2   6.6647e-17 
 7012.725 6.9014e-17 
 7014.25  6.8066e-17 
 7015.775 6.6326e-17 
 7017.3   6.2736e-17 
 7018.825 6.272e-17  
 7020.35  6.6938e-17 
 7021.875 6.76e-17   
 7023.4   6.8135e-17 
 7024.925 7.3541e-17 
 7026.45  7.3632e-17 
 7027.975 7.1962e-17 
 7029.5   6.9288e-17 
 7031.025 6.7362e-17 
 7032.55  6.8485e-17 
 7034.075 6.8701e-17 
 7035.6   6.7382e-17 
 7037.125 6.3031e-17 
 7038.65  6.1686e-17 
 7040.175 5.8863e-17 
 7041.7   5.9585e-17 
 7043.225 6.455e-17  
 7044.75  6.8576e-17 
 7046.275 6.7042e-17 
 7047.8   6.6968e-17 
 7049.325 6.7823e-17 
 7050.85  6.7883e-17 
 7052.375 6.425e-17  
 7053.9   6.2382e-17 
 7055.425 6.6656e-17 
 7056.95  6.7304e-17 
 7058.475 6.7578e-17 
 7060.0   6.6941e-17 
 7061.525 6.5958e-17 
 7063.05  6.4656e-17 
 7064.575 6.0845e-17 
 7066.1   6.1662e-17 
 7067.625 6.228e-17  
 7069.15  5.9505e-17 
 7070.675 5.9456e-17 
 7072.2   6.3256e-17 
 7073.725 6.5088e-17 
 7075.25  6.5161e-17 
 7076.775 6.2977e-17 
 7078.3   6.1533e-17 
 7079.825 6.1985e-17 
 7081.35  6.2046e-17 
 7082.875 6.435e-17  
 7084.4   6.4837e-17 
 7085.925 6.3709e-17 
 7087.45  6.4637e-17 
 7088.975 6.4436e-17 
 7090.5   6.6276e-17 
 7092.025 6.9476e-17 
 7093.55  6.7831e-17 
 7095.075 6.6792e-17 
 7096.6   6.6024e-17 
 7098.125 6.1596e-17 
 7099.65  6.2919e-17 
 7101.175 6.7716e-17 
 7102.7   6.7339e-17 
 7104.225 6.5655e-17 
 7105.75  6.4821e-17 
 7107.275 6.4558e-17 
 7108.8   6.5666e-17 
 7110.325 6.4941e-17 
 7111.85  6.2593e-17 
 7113.375 6.2237e-17 
 7114.9   6.3361e-17 
 7116.425 6.6695e-17 
 7117.95  6.6554e-17 
 7119.475 6.2152e-17 
 7121.0   6.06e-17   
 7122.525 6.2177e-17 
 7124.05  6.2679e-17 
 7125.575 6.0634e-17 
 7127.1   6.122e-17  
 7128.625 6.2836e-17 
 7130.15  6.3995e-17 
 7131.675 6.5413e-17 
 7133.2   6.4986e-17 
 7134.725 6.3028e-17 
 7136.25  6.4893e-17 
 7137.775 6.6727e-17 
 7139.3   6.2949e-17 
 7140.825 6.3497e-17 
 7142.35  6.6207e-17 
 7143.875 6.2779e-17 
 7145.4   6.2169e-17 
 7146.925 6.124e-17  
 7148.45  6.2944e-17 
 7149.975 6.3718e-17 
 7151.5   6.1453e-17 
 7153.025 6.3115e-17 
 7154.55  6.5671e-17 
 7156.075 6.4611e-17 
 7157.6   6.4795e-17 
 7159.125 6.2202e-17 
 7160.65  5.9515e-17 
 7162.175 5.524e-17  
 7163.7   5.76e-17   
 7165.225 6.1487e-17 
 7166.75  5.9964e-17 
 7168.275 6.032e-17  
 7169.8   6.4953e-17 
 7171.325 6.5166e-17 
 7172.85  6.1413e-17 
 7174.375 6.1314e-17 
 7175.9   6.375e-17  
 7177.425 6.5441e-17 
 7178.95  6.2198e-17 
 7180.475 5.9319e-17 
 7182.0   6.2256e-17 
 7183.525 6.2262e-17 
 7185.05  6.4896e-17 
 7186.575 6.8127e-17 
 7188.1   6.0291e-17 
 7189.625 5.9203e-17 
 7191.15  6.3148e-17 
 7192.675 6.3862e-17 
 7194.2   6.3565e-17 
 7195.725 6.1867e-17 
 7197.25  6.1483e-17 
 7198.775 6.2037e-17 
 7200.3   6.1793e-17 
 7201.825 6.2042e-17 
 7203.35  6.1544e-17 
 7204.875 6.2701e-17 
 7206.4   6.2726e-17 
 7207.925 6.4438e-17 
 7209.45  6.1654e-17 
 7210.975 6.0972e-17 
 7212.5   6.6754e-17 
 7214.025 6.9109e-17 
 7215.55  6.7355e-17 
 7217.075 6.6513e-17 
 7218.6   6.2305e-17 
 7220.125 5.7112e-17 
 7221.65  6.144e-17  
 7223.175 6.4543e-17 
 7224.7   6.2667e-17 
 7226.225 6.2872e-17 
 7227.75  6.0623e-17 
 7229.275 5.77e-17   
 7230.8   6.2809e-17 
 7232.325 6.1531e-17 
 7233.85  6.2672e-17 
 7235.375 6.565e-17  
 7236.9   6.2191e-17 
 7238.425 6.5559e-17 
 7239.95  6.4766e-17 
 7241.475 6.4096e-17 
 7243.0   6.0769e-17 
 7244.525 5.9697e-17 
 7246.05  6.0969e-17 
 7247.575 5.9844e-17 
 7249.1   6.038e-17  
 7250.625 6.076e-17  
 7252.15  6.3786e-17 
 7253.675 6.4384e-17 
 7255.2   6.4289e-17 
 7256.725 6.5134e-17 
 7258.25  6.296e-17  
 7259.775 6.2785e-17 
 7261.3   6.4361e-17 
 7262.825 6.4422e-17 
 7264.35  6.4589e-17 
 7265.875 6.1737e-17 
 7267.4   6.0156e-17 
 7268.925 6.2668e-17 
 7270.45  6.5634e-17 
 7271.975 6.334e-17  
 7273.5   6.3951e-17 
 7275.025 6.9396e-17 
 7276.55  6.6382e-17 
 7278.075 6.4543e-17 
 7279.6   6.3897e-17 
 7281.125 6.452e-17  
 7282.65  6.7698e-17 
 7284.175 6.8141e-17 
 7285.7   6.7139e-17 
 7287.225 6.5403e-17 
 7288.75  6.8447e-17 
 7290.275 6.7041e-17 
 7291.8   6.0545e-17 
 7293.325 6.352e-17  
 7294.85  6.6907e-17 
 7296.375 6.6872e-17 
 7297.9   6.8882e-17 
 7299.425 6.5481e-17 
 7300.95  6.1463e-17 
 7302.475 6.5052e-17 
 7304.0   6.8517e-17 
 7305.525 7.0019e-17 
 7307.05  6.8721e-17 
 7308.575 6.6089e-17 
 7310.1   6.3516e-17 
 7311.625 6.6667e-17 
 7313.15  6.9615e-17 
 7314.675 6.827e-17  
 7316.2   6.6303e-17 
 7317.725 6.6541e-17 
 7319.25  7.0072e-17 
 7320.775 6.9112e-17 
 7322.3   6.4765e-17 
 7323.825 6.3871e-17 
 7325.35  7.0387e-17 
 7326.875 7.2533e-17 
 7328.4   7.0346e-17 
 7329.925 6.6713e-17 
 7331.45  6.5221e-17 
 7332.975 6.5867e-17 
 7334.5   6.8948e-17 
 7336.025 6.8038e-17 
 7337.55  6.9993e-17 
 7339.075 6.8738e-17 
 7340.6   6.3828e-17 
 7342.125 6.3237e-17 
 7343.65  6.7194e-17 
 7345.175 7.0595e-17 
 7346.7   6.9121e-17 
 7348.225 6.8182e-17 
 7349.75  6.8247e-17 
 7351.275 6.6794e-17 
 7352.8   6.6678e-17 
 7354.325 6.8907e-17 
 7355.85  6.9621e-17 
 7357.375 6.8456e-17 
 7358.9   6.7823e-17 
 7360.425 6.4802e-17 
 7361.95  6.2863e-17 
 7363.475 6.3408e-17 
 7365.0   6.5593e-17 
 7366.525 7.168e-17  
 7368.05  7.3269e-17 
 7369.575 6.8156e-17 
 7371.1   6.5194e-17 
 7372.625 6.5763e-17 
 7374.15  6.6938e-17 
 7375.675 6.9526e-17 
 7377.2   7.0428e-17 
 7378.725 6.7253e-17 
 7380.25  6.6229e-17 
 7381.775 6.8223e-17 
 7383.3   6.8755e-17 
 7384.825 6.941e-17  
 7386.35  7.2935e-17 
 7387.875 7.1777e-17 
 7389.4   7.0707e-17 
 7390.925 7.151e-17  
 7392.45  7.0299e-17 
 7393.975 7.1956e-17 
 7395.5   7.3687e-17 
 7397.025 7.4254e-17 
 7398.55  7.4697e-17 
 7400.075 7.5913e-17 
 7401.6   7.1428e-17 
 7403.125 6.9251e-17 
 7404.65  6.8547e-17 
 7406.175 6.6142e-17 
 7407.7   7.0353e-17 
 7409.225 7.0704e-17 
 7410.75  6.7257e-17 
 7412.275 6.7167e-17 
 7413.8   6.844e-17  
 7415.325 6.8303e-17 
 7416.85  6.7724e-17 
 7418.375 6.8825e-17 
 7419.9   6.8022e-17 
 7421.425 6.9382e-17 
 7422.95  7.1296e-17 
 7424.475 7.0148e-17 
 7426.0   6.9309e-17 
 7427.525 6.9388e-17 
 7429.05  6.8405e-17 
 7430.575 6.8761e-17 
 7432.1   6.9623e-17 
 7433.625 6.7796e-17 
 7435.15  7.0906e-17 
 7436.675 7.2634e-17 
 7438.2   6.8219e-17 
 7439.725 6.811e-17  
 7441.25  7.0099e-17 
 7442.775 6.8149e-17 
 7444.3   6.5912e-17 
 7445.825 6.3467e-17 
 7447.35  6.1981e-17 
 7448.875 6.4589e-17 
 7450.4   6.425e-17  
 7451.925 6.5175e-17 
 7453.45  6.8116e-17 
 7454.975 6.5357e-17 
 7456.5   6.5986e-17 
 7458.025 6.9065e-17 
 7459.55  6.7592e-17 
 7461.075 6.6131e-17 
 7462.6   6.7855e-17 
 7464.125 6.9667e-17 
 7465.65  6.6891e-17 
 7467.175 6.6069e-17 
 7468.7   6.8348e-17 
 7470.225 6.9671e-17 
 7471.75  7.1793e-17 
 7473.275 7.0092e-17 
 7474.8   6.7156e-17 
 7476.325 6.5838e-17 
 7477.85  6.5241e-17 
 7479.375 6.5126e-17 
 7480.9   6.5322e-17 
 7482.425 6.5805e-17 
 7483.95  6.4095e-17 
 7485.475 6.4805e-17 
 7487.0   6.5519e-17 
 7488.525 6.7906e-17 
 7490.05  6.6148e-17 
 7491.575 6.5196e-17 
 7493.1   6.8935e-17 
 7494.625 6.8529e-17 
 7496.15  6.7378e-17 
 7497.675 7.0998e-17 
 7499.2   7.0697e-17 
 7500.725 6.8306e-17 
 7502.25  6.8593e-17 
 7503.775 6.2274e-17 
 7505.3   6.3713e-17 
 7506.825 6.5895e-17 
 7508.35  6.6807e-17 
 7509.875 6.6851e-17 
 7511.4   6.6212e-17 
 7512.925 6.8459e-17 
 7514.45  7.1267e-17 
 7515.975 6.4049e-17 
 7517.5   6.2171e-17 
 7519.025 5.995e-17  
 7520.55  5.8251e-17 
 7522.075 6.2349e-17 
 7523.6   6.1713e-17 
 7525.125 5.9831e-17 
 7526.65  6.3783e-17 
 7528.175 6.4455e-17 
 7529.7   6.5401e-17 
 7531.225 6.7388e-17 
 7532.75  6.6592e-17 
 7534.275 6.8892e-17 
 7535.8   6.6642e-17 
 7537.325 6.426e-17  
 7538.85  6.3129e-17 
 7540.375 6.0472e-17 
 7541.9   6.3046e-17 
 7543.425 6.2341e-17 
 7544.95  6.3693e-17 
 7546.475 6.4602e-17 
 7548.0   6.5348e-17 
 7549.525 6.5735e-17 
 7551.05  6.7277e-17 
 7552.575 6.7532e-17 
 7554.1   6.4544e-17 
 7555.625 6.3643e-17 
 7557.15  6.6524e-17 
 7558.675 6.0414e-17 
 7560.2   5.7421e-17 
 7561.725 6.1359e-17 
 7563.25  6.1346e-17 
 7564.775 6.0916e-17 
 7566.3   6.4247e-17 
 7567.825 6.727e-17  
 7569.35  6.6153e-17 
 7570.875 6.3456e-17 
 7572.4   6.3117e-17 
 7573.925 6.3659e-17 
 7575.45  6.1737e-17 
 7576.975 6.2468e-17 
 7578.5   6.3956e-17 
 7580.025 6.2245e-17 
 7581.55  6.706e-17  
 7583.075 6.7815e-17 
 7584.6   6.4129e-17 
 7586.125 6.3092e-17 
 7587.65  6.1187e-17 
 7589.175 6.0327e-17 
 7590.7   6.2257e-17 
 7592.225 6.0386e-17 
 7593.75  4.6285e-17 
 7595.275 3.9616e-17 
 7596.8   5.3109e-17 
 7598.325 6.3853e-17 
 7599.85  5.8905e-17 
 7601.375 4.7248e-17 
 7602.9   4.4879e-17 
 7604.425 5.7351e-17 
 7605.95  6.3809e-17 
 7607.475 5.9192e-17 
 7609.0   5.9393e-17 
 7610.525 6.2928e-17 
 7612.05  6.0016e-17 
 7613.575 5.7142e-17 
 7615.1   5.9101e-17 
 7616.625 6.3171e-17 
 7618.15  6.4286e-17 
 7619.675 5.8964e-17 
 7621.2   5.6825e-17 
 7622.725 6.0415e-17 
 7624.25  5.6896e-17 
 7625.775 5.4444e-17 
 7627.3   5.4756e-17 
 7628.825 5.4769e-17 
 7630.35  6.3674e-17 
 7631.875 6.3834e-17 
 7633.4   5.7589e-17 
 7634.925 5.8639e-17 
 7636.45  6.2989e-17 
 7637.975 6.308e-17  
 7639.5   5.909e-17  
 7641.025 5.8315e-17 
 7642.55  6.0105e-17 
 7644.075 6.1152e-17 
 7645.6   6.1155e-17 
 7647.125 5.6015e-17 
 7648.65  5.5201e-17 
 7650.175 5.8651e-17 
 7651.7   6.0603e-17 
 7653.225 6.4748e-17 
 7654.75  6.6383e-17 
 7656.275 6.1807e-17 
 7657.8   6.3138e-17 
 7659.325 6.5067e-17 
 7660.85  5.83e-17   
 7662.375 5.923e-17  
 7663.9   5.9923e-17 
 7665.425 6.159e-17  
 7666.95  6.229e-17  
 7668.475 5.8825e-17 
 7670.0   5.5411e-17 
 7671.525 5.846e-17  
 7673.05  6.1427e-17 
 7674.575 6.2424e-17 
 7676.1   6.1307e-17 
 7677.625 6.0108e-17 
 7679.15  5.746e-17  
 7680.675 5.7535e-17 
 7682.2   5.7775e-17 
 7683.725 6.0304e-17 
 7685.25  6.1252e-17 
 7686.775 6.1384e-17 
 7688.3   5.9181e-17 
 7689.825 5.8959e-17 
 7691.35  6.0646e-17 
 7692.875 6.0703e-17 
 7694.4   6.2718e-17 
 7695.925 6.2562e-17 
 7697.45  5.9813e-17 
 7698.975 6.1491e-17 
 7700.5   6.3308e-17 
 7702.025 6.0386e-17 
 7703.55  5.9031e-17 
 7705.075 5.8363e-17 
 7706.6   5.5491e-17 
 7708.125 5.5162e-17 
 7709.65  6.0617e-17 
 7711.175 6.2847e-17 
 7712.7   6.3431e-17 
 7714.225 6.2541e-17 
 7715.75  6.011e-17  
 7717.275 5.9565e-17 
 7718.8   6.2266e-17 
 7720.325 6.3507e-17 
 7721.85  6.0977e-17 
 7723.375 5.6135e-17 
 7724.9   5.7374e-17 
 7726.425 6.1505e-17 
 7727.95  6.1717e-17 
 7729.475 5.8924e-17 
 7731.0   5.8691e-17 
 7732.525 6.0835e-17 
 7734.05  6.1239e-17 
 7735.575 5.9724e-17 
 7737.1   6.1038e-17 
 7738.625 6.2565e-17 
 7740.15  5.9612e-17 
 7741.675 5.9198e-17 
 7743.2   5.9648e-17 
 7744.725 5.8178e-17 
 7746.25  6.1571e-17 
 7747.775 6.1563e-17 
 7749.3   5.6395e-17 
 7750.825 5.7678e-17 
 7752.35  5.926e-17  
 7753.875 5.7934e-17 
 7755.4   6.0698e-17 
 7756.925 6.4069e-17 
 7758.45  5.9695e-17 
 7759.975 5.8481e-17 
 7761.5   5.9673e-17 
 7763.025 6.0562e-17 
 7764.55  5.829e-17  
 7766.075 5.5804e-17 
 7767.6   5.5675e-17 
 7769.125 5.8046e-17 
 7770.65  5.9161e-17 
 7772.175 5.9955e-17 
 7773.7   6.3187e-17 
 7775.225 6.6071e-17 
 7776.75  6.5213e-17 
 7778.275 6.4715e-17 
 7779.8   5.879e-17  
 7781.325 5.4221e-17 
 7782.85  5.5575e-17 
 7784.375 5.6509e-17 
 7785.9   5.7096e-17 
 7787.425 6.1111e-17 
 7788.95  6.4152e-17 
 7790.475 6.1951e-17 
 7792.0   6.0385e-17 
 7793.525 5.6157e-17 
 7795.05  5.4569e-17 
 7796.575 5.4519e-17 
 7798.1   5.5731e-17 
 7799.625 6.0268e-17 
 7801.15  6.2626e-17 
 7802.675 5.9922e-17 
 7804.2   5.924e-17  
 7805.725 6.1718e-17 
 7807.25  6.0361e-17 
 7808.775 5.856e-17  
 7810.3   5.7199e-17 
 7811.825 5.3915e-17 
 7813.35  5.5689e-17 
 7814.875 5.961e-17  
 7816.4   6.196e-17  
 7817.925 6.0829e-17 
 7819.45  5.7545e-17 
 7820.975 5.4088e-17 
 7822.5   5.7015e-17 
 7824.025 5.7131e-17 
 7825.55  5.8678e-17 
 7827.075 6.1338e-17 
 7828.6   6.1308e-17 
 7830.125 6.0761e-17 
 7831.65  5.7085e-17 
 7833.175 5.7773e-17 
 7834.7   5.9815e-17 
 7836.225 6.0845e-17 
 7837.75  5.9616e-17 
 7839.275 5.8446e-17 
 7840.8   5.8113e-17 
 7842.325 5.7502e-17 
 7843.85  5.7572e-17 
 7845.375 5.6882e-17 
 7846.9   5.7871e-17 
 7848.425 6.1466e-17 
 7849.95  6.516e-17  
 7851.475 6.0863e-17 
 7853.0   5.7885e-17 
 7854.525 6.2334e-17 
 7856.05  5.9318e-17 
 7857.575 5.7336e-17 
 7859.1   5.8863e-17 
 7860.625 5.4576e-17 
 7862.15  5.1995e-17 
 7863.675 5.503e-17  
 7865.2   5.6345e-17 
 7866.725 5.5484e-17 
 7868.25  5.6482e-17 
 7869.775 5.7899e-17 
 7871.3   5.6963e-17 
 7872.825 5.671e-17  
 7874.35  5.7292e-17 
 7875.875 5.8346e-17 
 7877.4   6.2315e-17 
 7878.925 6.3578e-17 
 7880.45  5.8022e-17 
 7881.975 5.311e-17  
 7883.5   5.5589e-17 
 7885.025 6.2293e-17 
 7886.55  6.239e-17  
 7888.075 6.1376e-17 
 7889.6   6.684e-17  
 7891.125 6.7489e-17 
 7892.65  6.0155e-17 
 7894.175 5.532e-17  
 7895.7   5.6402e-17 
 7897.225 5.8916e-17 
 7898.75  5.8994e-17 
 7900.275 5.8765e-17 
 7901.8   5.9935e-17 
 7903.325 6.0676e-17 
 7904.85  5.9054e-17 
 7906.375 5.7151e-17 
 7907.9   5.73e-17   
 7909.425 6.3199e-17 
 7910.95  6.156e-17  
 7912.475 6.2649e-17 
 7914.0   6.4838e-17 
 7915.525 6.1261e-17 
 7917.05  5.7842e-17 
 7918.575 5.847e-17  
 7920.1   5.9227e-17 
 7921.625 6.1471e-17 
 7923.15  6.0782e-17 
 7924.675 5.7537e-17 
 7926.2   6.0904e-17 
 7927.725 5.9501e-17 
 7929.25  6.0721e-17 
 7930.775 6.0547e-17 
 7932.3   6.1814e-17 
 7933.825 5.9178e-17 
 7935.35  6.1964e-17 
 7936.875 6.4437e-17 
 7938.4   6.2392e-17 
 7939.925 5.3628e-17 
 7941.45  5.2373e-17 
 7942.975 5.6759e-17 
 7944.5   5.9367e-17 
 7946.025 6.108e-17  
 7947.55  5.8094e-17 
 7949.075 5.6952e-17 
 7950.6   5.8561e-17 
 7952.125 6.0916e-17 
 7953.65  5.8942e-17 
 7955.175 5.8745e-17 
 7956.7   6.0009e-17 
 7958.225 5.9571e-17 
 7959.75  5.8564e-17 
 7961.275 6.4991e-17 
 7962.8   6.5712e-17 
 7964.325 6.4364e-17 
 7965.85  5.8686e-17 
 7967.375 5.3983e-17 
 7968.9   5.4969e-17 
 7970.425 5.6184e-17 
 7971.95  5.5898e-17 
 7973.475 5.5869e-17 
 7975.0   5.5968e-17 
 7976.525 5.8598e-17 
 7978.05  5.9779e-17 
 7979.575 5.8912e-17 
 7981.1   5.6796e-17 
 7982.625 5.6129e-17 
 7984.15  5.7466e-17 
 7985.675 5.5788e-17 
 7987.2   5.8228e-17 
 7988.725 6.126e-17  
 7990.25  5.6589e-17 
 7991.775 5.6127e-17 
 7993.3   5.8719e-17 
 7994.825 6.2794e-17 
 7996.35  6.4132e-17 
 7997.875 5.8622e-17 
 7999.4   5.5964e-17 
 8000.925 5.5328e-17 
 8002.45  5.7159e-17 
 8003.975 5.7294e-17 
 8005.5   5.4401e-17 
 8007.025 5.7605e-17 
 8008.55  6.1073e-17 
 8010.075 5.8064e-17 
 8011.6   5.7951e-17 
 8013.125 6.294e-17  
 8014.65  6.4371e-17 
 8016.175 6.1233e-17 
 8017.7   5.8359e-17 
 8019.225 5.875e-17  
 8020.75  5.7173e-17 
 8022.275 5.8192e-17 
 8023.8   5.9106e-17 
 8025.325 5.8932e-17 
 8026.85  5.911e-17  
 8028.375 5.8539e-17 
 8029.9   5.5481e-17 
 8031.425 5.4379e-17 
 8032.95  5.6799e-17 
 8034.475 5.8181e-17 
 8036.0   5.6118e-17 
 8037.525 5.4356e-17 
 8039.05  5.3475e-17 
 8040.575 5.5222e-17 
 8042.1   5.628e-17  
 8043.625 5.5268e-17 
 8045.15  5.9479e-17 
 8046.675 6.1883e-17 
 8048.2   6.0176e-17 
 8049.725 5.9124e-17 
 8051.25  5.6943e-17 
 8052.775 5.6567e-17 
 8054.3   5.6535e-17 
 8055.825 5.7092e-17 
 8057.35  5.892e-17  
 8058.875 5.7612e-17 
 8060.4   6.0582e-17 
 8061.925 5.982e-17  
 8063.45  5.8301e-17 
 8064.975 6.1174e-17 
 8066.5   6.0894e-17 
 8068.025 5.8767e-17 
 8069.55  5.7908e-17 
 8071.075 5.4543e-17 
 8072.6   5.4828e-17 
 8074.125 5.7263e-17 
 8075.65  5.7984e-17 
 8077.175 5.853e-17  
 8078.7   6.041e-17  
 8080.225 6.1227e-17 
 8081.75  5.7339e-17 
 8083.275 5.6296e-17 
 8084.8   5.7225e-17 
 8086.325 5.6104e-17 
 8087.85  5.6245e-17 
 8089.375 5.6515e-17 
 8090.9   5.4701e-17 
 8092.425 5.5748e-17 
 8093.95  5.8772e-17 
 8095.475 5.7962e-17 
 8097.0   5.6549e-17 
 8098.525 5.544e-17  
 8100.05  5.724e-17  
 8101.575 5.7134e-17 
 8103.1   5.3803e-17 
 8104.625 5.2829e-17 
 8106.15  5.4867e-17 
 8107.675 5.4645e-17 
 8109.2   5.7637e-17 
 8110.725 5.8216e-17 
 8112.25  5.5466e-17 
 8113.775 5.463e-17  
 8115.3   5.3305e-17 
 8116.825 5.3676e-17 
 8118.35  5.7119e-17 
 8119.875 5.6721e-17 
 8121.4   5.5347e-17 
 8122.925 5.4702e-17 
 8124.45  5.4822e-17 
 8125.975 5.5281e-17 
 8127.5   5.2661e-17 
 8129.025 5.0352e-17 
 8130.55  5.0487e-17 
 8132.075 5.317e-17  
 8133.6   5.3781e-17 
 8135.125 5.4071e-17 
 8136.65  5.4912e-17 
 8138.175 5.1285e-17 
 8139.7   5.0768e-17 
 8141.225 5.4923e-17 
 8142.75  5.3464e-17 
 8144.275 4.974e-17  
 8145.8   5.1894e-17 
 8147.325 5.4279e-17 
 8148.85  5.5217e-17 
 8150.375 5.3013e-17 
 8151.9   4.8963e-17 
 8153.425 5.1013e-17 
 8154.95  5.4149e-17 
 8156.475 5.3333e-17 
 8158.0   5.194e-17  
 8159.525 4.9993e-17 
 8161.05  5.3484e-17 
 8162.575 5.7784e-17 
 8164.1   5.4827e-17 
 8165.625 5.2466e-17 
 8167.15  5.6562e-17 
 8168.675 6.0212e-17 
 8170.2   5.3959e-17 
 8171.725 5.2161e-17 
 8173.25  5.309e-17  
 8174.775 5.1516e-17 
 8176.3   4.9919e-17 
 8177.825 5.1458e-17 
 8179.35  5.4629e-17 
 8180.875 5.6782e-17 
 8182.4   5.3545e-17 
 8183.925 4.8712e-17 
 8185.45  5.0088e-17 
 8186.975 5.0705e-17 
 8188.5   4.7441e-17 
 8190.025 5.0917e-17 
 8191.55  5.4238e-17 
 8193.075 5.3089e-17 
 8194.6   5.0979e-17 
 8196.125 4.6361e-17 
 8197.65  4.8422e-17 
 8199.175 5.3362e-17 
 8200.7   5.4535e-17 
 8202.225 5.3227e-17 
 8203.75  5.5028e-17 
 8205.275 5.5159e-17 
 8206.8   5.3834e-17 
 8208.325 5.3006e-17 
 8209.85  5.2768e-17 
 8211.375 5.6724e-17 
 8212.9   5.7083e-17 
 8214.425 5.2504e-17 
 8215.95  5.0875e-17 
 8217.475 5.3454e-17 
 8219.0   5.5681e-17 
 8220.525 5.5875e-17 
 8222.05  5.1624e-17 
 8223.575 4.5377e-17 
 8225.1   4.3563e-17 
 8226.625 4.9691e-17 
 8228.15  5.5409e-17 
 8229.675 5.4944e-17 
 8231.2   5.4174e-17 
 8232.725 5.5029e-17 
 8234.25  5.2505e-17 
 8235.775 4.9026e-17 
 8237.3   5.0308e-17 
 8238.825 5.038e-17  
 8240.35  4.8918e-17 
 8241.875 5.0719e-17 
 8243.4   5.4303e-17 
 8244.925 5.703e-17  
 8246.45  5.451e-17  
 8247.975 5.2463e-17 
 8249.5   5.2755e-17 
 8251.025 5.1495e-17 
 8252.55  5.3964e-17 
 8254.075 5.4759e-17 
 8255.6   5.2109e-17 
 8257.125 5.0892e-17 
 8258.65  4.9866e-17 
 8260.175 5.3666e-17 
 8261.7   5.3729e-17 
 8263.225 4.9942e-17 
 8264.75  4.8276e-17 
 8266.275 4.6788e-17 
 8267.8   4.9339e-17 
 8269.325 4.9034e-17 
 8270.85  5.0752e-17 
 8272.375 5.0403e-17 
 8273.9   5.1111e-17 
 8275.425 5.6378e-17 
 8276.95  5.1105e-17 
 8278.475 5.3011e-17 
 8280.0   6.3773e-17 
 8281.525 6.1505e-17 
 8283.05  5.4886e-17 
 8284.575 5.3372e-17 
 8286.1   5.5769e-17 
 8287.625 5.8205e-17 
 8289.15  5.5778e-17 
 8290.675 5.0159e-17 
 8292.2   4.932e-17  
 8293.725 5.3365e-17 
 8295.25  5.6913e-17 
 8296.775 6.021e-17  
 8298.3   5.8838e-17 
 8299.825 5.4053e-17 
 8301.35  4.7476e-17 
 8302.875 4.7648e-17 
 8304.4   5.1889e-17 
 8305.925 5.3159e-17 
 8307.45  5.4817e-17 
 8308.975 5.5436e-17 
 8310.5   5.3796e-17 
 8312.025 4.7088e-17 
 8313.55  4.7996e-17 
 8315.075 5.2967e-17 
 8316.6   5.4136e-17 
 8318.125 5.2522e-17 
 8319.65  5.454e-17  
 8321.175 5.5791e-17 
 8322.7   5.5111e-17 
 8324.225 5.2772e-17 
 8325.75  5.4709e-17 
 8327.275 5.3759e-17 
 8328.8   5.253e-17  
 8330.325 5.434e-17  
 8331.85  5.3559e-17 
 8333.375 5.299e-17  
 8334.9   5.1965e-17 
 8336.425 5.1978e-17 
 8337.95  5.3063e-17 
 8339.475 5.1608e-17 
 8341.0   5.6469e-17 
 8342.525 6.6076e-17 
 8344.05  5.9588e-17 
 8345.575 5.1895e-17 
 8347.1   5.2688e-17 
 8348.625 5.6635e-17 
 8350.15  5.9249e-17 
 8351.675 5.4955e-17 
 8353.2   4.8957e-17 
 8354.725 4.7151e-17 
 8356.25  4.8755e-17 
 8357.775 5.1474e-17 
 8359.3   5.206e-17  
 8360.825 5.4281e-17 
 8362.35  5.5589e-17 
 8363.875 5.2461e-17 
 8365.4   5.1002e-17 
 8366.925 5.1346e-17 
 8368.45  5.2161e-17 
 8369.975 5.3323e-17 
 8371.5   5.3878e-17 
 8373.025 5.6631e-17 
 8374.55  5.7894e-17 
 8376.075 5.6441e-17 
 8377.6   5.777e-17  
 8379.125 5.4691e-17 
 8380.65  5.1389e-17 
 8382.175 5.4449e-17 
 8383.7   5.5791e-17 
 8385.225 5.3742e-17 
 8386.75  5.1452e-17 
 8388.275 5.1009e-17 
 8389.8   5.0821e-17 
 8391.325 5.31e-17   
 8392.85  5.3965e-17 
 8394.375 5.1205e-17 
 8395.9   4.8453e-17 
 8397.425 5.1295e-17 
 8398.95  5.769e-17  
 8400.475 5.3975e-17 
 8402.0   5.1538e-17 
 8403.525 5.0316e-17 
 8405.05  5.1168e-17 
 8406.575 5.1947e-17 
 8408.1   5.2092e-17 
 8409.625 5.3618e-17 
 8411.15  5.6046e-17 
 8412.675 5.6391e-17 
 8414.2   5.2879e-17 
 8415.725 4.9889e-17 
 8417.25  5.0546e-17 
 8418.775 5.3814e-17 
 8420.3   5.2489e-17 
 8421.825 5.1248e-17 
 8423.35  5.2911e-17 
 8424.875 5.1725e-17 
 8426.4   5.4634e-17 
 8427.925 6.182e-17  
 8429.45  6.4077e-17 
 8430.975 5.3085e-17 
 8432.5   5.0789e-17 
 8434.025 5.1811e-17 
 8435.55  5.0365e-17 
 8437.075 5.1717e-17 
 8438.6   5.2499e-17 
 8440.125 5.1469e-17 
 8441.65  5.2625e-17 
 8443.175 5.2555e-17 
 8444.7   5.4618e-17 
 8446.225 6.1549e-17 
 8447.75  6.2761e-17 
 8449.275 5.7962e-17 
 8450.8   5.221e-17  
 8452.325 4.7775e-17 
 8453.85  5.147e-17  
 8455.375 5.3867e-17 
 8456.9   5.4237e-17 
 8458.425 5.6976e-17 
 8459.95  5.6787e-17 
 8461.475 6.1263e-17 
 8463.0   6.5354e-17 
 8464.525 5.9685e-17 
 8466.05  5.3285e-17 
 8467.575 5.3381e-17 
 8469.1   5.332e-17  
 8470.625 5.2306e-17 
 8472.15  5.0525e-17 
 8473.675 4.96e-17   
 8475.2   5.0364e-17 
 8476.725 5.0208e-17 
 8478.25  4.9961e-17 
 8479.775 5.4327e-17 
 8481.3   5.6234e-17 
 8482.825 5.4283e-17 
 8484.35  5.2864e-17 
 8485.875 5.0647e-17 
 8487.4   5.2033e-17 
 8488.925 5.4206e-17 
 8490.45  5.6908e-17 
 8491.975 5.8405e-17 
 8493.5   5.7747e-17 
 8495.025 5.5908e-17 
 8496.55  5.3442e-17 
 8498.075 5.6304e-17 
 8499.6   6.1045e-17 
 8501.125 5.6961e-17 
 8502.65  5.3344e-17 
 8504.175 5.5792e-17 
 8505.7   5.4405e-17 
 8507.225 5.3522e-17 
 8508.75  5.4534e-17 
 8510.275 5.0892e-17 
 8511.8   4.9087e-17 
 8513.325 4.9707e-17 
 8514.85  5.3456e-17 
 8516.375 5.635e-17  
 8517.9   5.4315e-17 
 8519.425 5.1405e-17 
 8520.95  5.2578e-17 
 8522.475 5.3846e-17 
 8524.0   5.3473e-17 
 8525.525 5.381e-17  
 8527.05  5.4467e-17 
 8528.575 5.472e-17  
 8530.1   5.3509e-17 
 8531.625 5.2561e-17 
 8533.15  5.0499e-17 
 8534.675 5.157e-17  
 8536.2   5.1748e-17 
 8537.725 5.0779e-17 
 8539.25  5.0299e-17 
 8540.775 5.1787e-17 
 8542.3   5.2281e-17 
 8543.825 5.1807e-17 
 8545.35  5.0579e-17 
 8546.875 5.3141e-17 
 8548.4   5.6822e-17 
 8549.925 5.3318e-17 
 8551.45  5.0487e-17 
 8552.975 5.2516e-17 
 8554.5   5.0685e-17 
 8556.025 4.9048e-17 
 8557.55  5.0274e-17 
 8559.075 5.0705e-17 
 8560.6   5.2067e-17 
 8562.125 5.5258e-17 
 8563.65  5.31e-17   
 8565.175 4.9084e-17 
 8566.7   4.9785e-17 
 8568.225 5.2445e-17 
 8569.75  5.3756e-17 
 8571.275 5.3418e-17 
 8572.8   5.4164e-17 
 8574.325 5.4353e-17 
 8575.85  4.9393e-17 
 8577.375 4.8608e-17 
 8578.9   5.3054e-17 
 8580.425 5.4122e-17 
 8581.95  5.0884e-17 
 8583.475 5.1143e-17 
 8585.0   5.5316e-17 
 8586.525 5.5766e-17 
 8588.05  5.1664e-17 
 8589.575 4.9662e-17 
 8591.1   5.0892e-17 
 8592.625 5.2377e-17 
 8594.15  5.1698e-17 
 8595.675 5.0122e-17 
 8597.2   5.1113e-17 
 8598.725 5.1999e-17 
 8600.25  5.1585e-17 
 8601.775 5.0892e-17 
 8603.3   5.1423e-17 
 8604.825 5.3778e-17 
 8606.35  5.2936e-17 
 8607.875 5.0771e-17 
 8609.4   5.1465e-17 
 8610.925 5.0735e-17 
 8612.45  5.0634e-17 
 8613.975 5.3332e-17 
 8615.5   4.9525e-17 
 8617.025 4.7463e-17 
 8618.55  5.14e-17   
 8620.075 5.3543e-17 
 8621.6   5.2991e-17 
 8623.125 5.4027e-17 
 8624.65  5.2871e-17 
 8626.175 5.1986e-17 
 8627.7   5.2641e-17 
 8629.225 5.222e-17  
 8630.75  5.5039e-17 
 8632.275 5.6182e-17 
 8633.8   5.5198e-17 
 8635.325 5.2947e-17 
 8636.85  4.7419e-17 
 8638.375 4.6765e-17 
 8639.9   5.2621e-17 
 8641.425 5.2276e-17 
 8642.95  5.0748e-17 
 8644.475 4.9142e-17 
 8646.0   5.2439e-17 
 8647.525 5.5125e-17 
 8649.05  4.9456e-17 
 8650.575 5.1051e-17 
 8652.1   5.2749e-17 
 8653.625 5.1012e-17 
 8655.15  5.339e-17  
 8656.675 6.0683e-17 
 8658.2   5.8812e-17 
 8659.725 5.3327e-17 
 8661.25  5.0963e-17 
 8662.775 5.0187e-17 
 8664.3   5.1986e-17 
 8665.825 5.3286e-17 
 8667.35  5.0249e-17 
 8668.875 5.3521e-17 
 8670.4   5.1345e-17 
 8671.925 5.0184e-17 
 8673.45  5.2466e-17 
 8674.975 5.1621e-17 
 8676.5   5.227e-17  
 8678.025 5.3626e-17 
 8679.55  5.5006e-17 
 8681.075 5.2302e-17 
 8682.6   5.1503e-17 
 8684.125 5.0283e-17 
 8685.65  4.9232e-17 
 8687.175 4.7995e-17 
 8688.7   4.9262e-17 
 8690.225 5.087e-17  
 8691.75  4.9441e-17 
 8693.275 5.2743e-17 
 8694.8   5.7588e-17 
 8696.325 5.4999e-17 
 8697.85  4.9852e-17 
 8699.375 4.8155e-17 
 8700.9   4.9477e-17 
 8702.425 5.1385e-17 
 8703.95  5.1202e-17 
 8705.475 5.1563e-17 
 8707.0   5.2268e-17 
 8708.525 5.2455e-17 
 8710.05  5.1622e-17 
 8711.575 5.0208e-17 
 8713.1   5.2288e-17 
 8714.625 5.0972e-17 
 8716.15  4.8051e-17 
 8717.675 4.9383e-17 
 8719.2   5.1251e-17 
 8720.725 5.17e-17   
 8722.25  5.0916e-17 
 8723.775 4.7497e-17 
 8725.3   4.6576e-17 
 8726.825 4.7751e-17 
 8728.35  4.9609e-17 
 8729.875 5.1584e-17 
 8731.4   5.0355e-17 
 8732.925 4.5758e-17 
 8734.45  4.5646e-17 
 8735.975 4.8004e-17 
 8737.5   4.6519e-17 
 8739.025 4.8274e-17 
 8740.55  4.9421e-17 
 8742.075 5.0585e-17 
 8743.6   5.3148e-17 
 8745.125 4.9594e-17 
 8746.65  4.9457e-17 
 8748.175 4.8388e-17 
 8749.7   5.243e-17  
 8751.225 5.361e-17  
 8752.75  5.1757e-17 
 8754.275 5.2862e-17 
 8755.8   5.4679e-17 
 8757.325 5.3495e-17 
 8758.85  4.7721e-17 
 8760.375 5.2471e-17 
 8761.9   5.1052e-17 
 8763.425 5.3318e-17 
 8764.95  5.3471e-17 
 8766.475 4.9558e-17 
 8768.0   4.8865e-17 
 8769.525 4.9893e-17 
 8771.05  4.7922e-17 
 8772.575 4.9726e-17 
 8774.1   5.3342e-17 
 8775.625 5.7426e-17 
 8777.15  5.7486e-17 
 8778.675 4.9485e-17 
 8780.2   4.9427e-17 
 8781.725 5.0951e-17 
 8783.25  5.0703e-17 
 8784.775 4.834e-17  
 8786.3   4.9764e-17 
 8787.825 5.0345e-17 
 8789.35  4.9543e-17 
 8790.875 5.0474e-17 
 8792.4   4.7876e-17 
 8793.925 4.6232e-17 
 8795.45  4.8756e-17 
 8796.975 5.0455e-17 
 8798.5   4.9444e-17 
 8800.025 4.867e-17  
 8801.55  5.0551e-17 
 8803.075 5.0045e-17 
 8804.6   4.7098e-17 
 8806.125 4.6784e-17 
 8807.65  4.8736e-17 
 8809.175 5.0732e-17 
 8810.7   5.1304e-17 
 8812.225 5.0463e-17 
 8813.75  4.8532e-17 
 8815.275 4.7843e-17 
 8816.8   5.0407e-17 
 8818.325 4.9392e-17 
 8819.85  4.8152e-17 
 8821.375 5.3149e-17 
 8822.9   5.6877e-17 
 8824.425 5.234e-17  
 8825.95  4.7918e-17 
 8827.475 4.7233e-17 
 8829.0   4.3507e-17 
 8830.525 4.7355e-17 
 8832.05  5.4199e-17 
 8833.575 5.5748e-17 
 8835.1   4.8392e-17 
 8836.625 4.3817e-17 
 8838.15  4.9311e-17 
 8839.675 4.8477e-17 
 8841.2   4.8131e-17 
 8842.725 5.0175e-17 
 8844.25  5.2146e-17 
 8845.775 5.2341e-17 
 8847.3   5.2063e-17 
 8848.825 4.8874e-17 
 8850.35  4.7947e-17 
 8851.875 4.8846e-17 
 8853.4   5.2434e-17 
 8854.925 5.0232e-17 
 8856.45  4.9574e-17 
 8857.975 5.0467e-17 
 8859.5   5.1611e-17 
 8861.025 5.4057e-17 
 8862.55  5.0726e-17 
 8864.075 5.3142e-17 
 8865.6   5.4405e-17 
 8867.125 4.6738e-17 
 8868.65  4.0746e-17 
 8870.175 4.5098e-17 
 8871.7   4.9653e-17 
 8873.225 4.73e-17   
 8874.75  4.7073e-17 
 8876.275 4.8034e-17 
 8877.8   4.7536e-17 
 8879.325 4.6546e-17 
 8880.85  4.6161e-17 
 8882.375 4.2974e-17 
 8883.9   3.784e-17  
 8885.425 4.2774e-17 
 8886.95  4.4315e-17 
 8888.475 4.6311e-17 
 8890.0   4.8565e-17 
 8891.525 4.8675e-17 
 8893.05  4.9859e-17 
 8894.575 4.783e-17  
 8896.1   4.8513e-17 
 8897.625 5.2052e-17 
 8899.15  5.6459e-17 
 8900.675 5.3681e-17 
 8902.2   5.0571e-17 
 8903.725 4.7348e-17 
 8905.25  4.4837e-17 
 8906.775 4.505e-17  
 8908.3   4.7296e-17 
 8909.825 4.7702e-17 
 8911.35  4.8447e-17 
 8912.875 4.7379e-17 
 8914.4   4.9448e-17 
 8915.925 5.8086e-17 
 8917.45  5.4371e-17 
 8918.975 4.5193e-17 
 8920.5   4.6215e-17 
 8922.025 4.9023e-17 
 8923.55  4.9077e-17 
 8925.075 4.6617e-17 
 8926.6   4.4847e-17 
 8928.125 4.8329e-17 
 8929.65  4.9715e-17 
 8931.175 4.7653e-17 
 8932.7   4.7718e-17 
 8934.225 4.8636e-17 
 8935.75  4.9315e-17 
 8937.275 4.796e-17  
 8938.8   5.1477e-17 
 8940.325 5.4767e-17 
 8941.85  5.0655e-17 
 8943.375 4.7159e-17 
 8944.9   4.4154e-17 
 8946.425 4.6458e-17 
 8947.95  4.6101e-17 
 8949.475 4.516e-17  
 8951.0   4.7839e-17 
 8952.525 4.9272e-17 
 8954.05  5.0321e-17 
 8955.575 5.5632e-17 
 8957.1   6.3219e-17 
 8958.625 5.628e-17  
 8960.15  4.9896e-17 
 8961.675 4.8332e-17 
 8963.2   4.876e-17  
 8964.725 5.1483e-17 
 8966.25  5.0253e-17 
 8967.775 4.6768e-17 
 8969.3   4.7722e-17 
 8970.825 4.8453e-17 
 8972.35  4.782e-17  
 8973.875 4.9004e-17 
 8975.4   4.7526e-17 
 8976.925 4.6806e-17 
 8978.45  4.6494e-17 
 8979.975 4.6189e-17 
 8981.5   4.6099e-17 
 8983.025 4.6038e-17 
 8984.55  4.6878e-17 
 8986.075 4.6796e-17 
 8987.6   5.01e-17   
 8989.125 4.7549e-17 
 8990.65  4.8999e-17 
 8992.175 5.0812e-17 
 8993.7   4.864e-17  
 8995.225 4.6306e-17 
 8996.75  4.6215e-17 
 8998.275 4.6024e-17 
 8999.8   4.772e-17  
 9001.325 5.2953e-17 
 9002.85  4.6297e-17 
 9004.375 4.4857e-17 
 9005.9   4.9576e-17 
 9007.425 4.9847e-17 
 9008.95  5.0092e-17 
 9010.475 4.7895e-17 
 9012.0   4.4222e-17 
 9013.525 4.4562e-17 
 9015.05  4.5943e-17 
 9016.575 4.9145e-17 
 9018.1   4.7895e-17 
 9019.625 4.2969e-17 
 9021.15  4.42e-17   
 9022.675 4.6544e-17 
 9024.2   4.5489e-17 
 9025.725 4.5697e-17 
 9027.25  4.5116e-17 
 9028.775 4.3032e-17 
 9030.3   4.6229e-17 
 9031.825 4.829e-17  
 9033.35  4.5538e-17 
 9034.875 4.559e-17  
 9036.4   4.5704e-17 
 9037.925 4.4667e-17 
 9039.45  4.4798e-17 
 9040.975 4.6417e-17 
 9042.5   4.8566e-17 
 9044.025 4.75e-17   
 9045.55  4.7496e-17 
 9047.075 5.0311e-17 
 9048.6   4.9239e-17 
 9050.125 4.296e-17  
 9051.65  4.3556e-17 
 9053.175 4.8517e-17 
 9054.7   4.6309e-17 
 9056.225 4.2603e-17 
 9057.75  4.5366e-17 
 9059.275 4.6435e-17 
 9060.8   4.5799e-17 
 9062.325 4.9789e-17 
 9063.85  4.8727e-17 
 9065.375 4.4368e-17 
 9066.9   4.0399e-17 
 9068.425 3.9826e-17 
 9069.95  4.4237e-17 
 9071.475 4.6953e-17 
 9073.0   4.9128e-17 
 9074.525 4.6406e-17 
 9076.05  4.2069e-17 
 9077.575 3.9429e-17 
 9079.1   4.0103e-17 
 9080.625 4.3587e-17 
 9082.15  4.2561e-17 
 9083.675 4.2136e-17 
 9085.2   4.2044e-17 
 9086.725 3.7912e-17 
 9088.25  4.2619e-17 
 9089.775 4.8726e-17 
 9091.3   4.9309e-17 
 9092.825 4.9797e-17 
 9094.35  5.064e-17  
 9095.875 4.5865e-17 
 9097.4   4.0973e-17 
 9098.925 4.4885e-17 
 9100.45  4.8687e-17 
 9101.975 4.5032e-17 
 9103.5   4.3704e-17 
 9105.025 4.2775e-17 
 9106.55  4.2907e-17 
 9108.075 4.6715e-17 
 9109.6   4.3066e-17 
 9111.125 4.2645e-17 
 9112.65  4.3606e-17 
 9114.175 3.9433e-17 
 9115.7   3.7617e-17 
 9117.225 4.3332e-17 
 9118.75  4.5804e-17 
 9120.275 4.6526e-17 
 9121.8   4.4954e-17 
 9123.325 4.2731e-17 
 9124.85  4.1998e-17 
 9126.375 4.1946e-17 
 9127.9   4.0587e-17 
 9129.425 4.329e-17  
 9130.95  4.7817e-17 
 9132.475 4.3842e-17 
 9134.0   4.3385e-17 
 9135.525 4.4356e-17 
 9137.05  4.3918e-17 
 9138.575 4.5291e-17 
 9140.1   4.4571e-17 
 9141.625 4.674e-17  
 9143.15  4.9862e-17 
 9144.675 4.683e-17  
 9146.2   4.3819e-17 
 9147.725 4.4008e-17 
 9149.25  4.0663e-17 
 9150.775 3.7778e-17 
 9152.3   4.1305e-17 
 9153.825 4.5198e-17 
 9155.35  4.8527e-17 
 9156.875 4.8451e-17 
 9158.4   4.5105e-17 
 9159.925 4.627e-17  
 9161.45  4.9618e-17 
 9162.975 4.9892e-17 
 9164.5   4.4741e-17 
 9166.025 3.8712e-17 
 9167.55  4.1614e-17 
 9169.075 4.4109e-17 
 9170.6   4.4059e-17 
 9172.125 4.9028e-17 
 9173.65  4.7522e-17 
 9175.175 4.584e-17  
 9176.7   4.5575e-17 
 9178.225 4.5346e-17 
 9179.75  4.3978e-17 
 9181.275 4.5204e-17 
 9182.8   4.8318e-17 
 9184.325 5.0317e-17 
 9185.85  4.8979e-17 
 9187.375 4.6997e-17 
 9188.9   4.7048e-17 
 9190.425 4.6574e-17 
 9191.95  4.716e-17  
 9193.475 4.6045e-17 
 9195.0   4.4414e-17 
 9196.525 5.0503e-17 
 9198.05  5.0893e-17 
 9199.575 4.7785e-17 
 9201.1   4.6922e-17 
 9202.625 4.474e-17  
 9204.15  4.5307e-17 
 9205.675 4.5795e-17 
 9207.2   4.6801e-17 
 9208.725 4.7636e-17 
 9210.25  4.7136e-17 
 9211.775 4.92e-17   
 9213.3   4.8283e-17 
 9214.825 4.8724e-17 
 9216.35  5.263e-17  
 9217.875 5.1207e-17 
 9219.4   4.7467e-17 
 9220.925 4.5565e-17 
 9222.45  4.8018e-17 
 9223.975 5.0964e-17 
 9225.5   4.9577e-17 
 9227.025 4.7406e-17 
 9228.55  4.8634e-17 
 9230.075 4.5813e-17 
 9231.6   4.3647e-17 
 9233.125 4.6317e-17 
 9234.65  4.6266e-17 
 9236.175 4.7288e-17 
 9237.7   5.0303e-17 
 9239.225 4.7528e-17 
 9240.75  4.639e-17  
 9242.275 4.9693e-17 
 9243.8   4.9189e-17 
 9245.325 4.5088e-17 
 9246.85  4.4692e-17 
 9248.375 4.7268e-17 
 9249.9   4.8911e-17 
 9251.425 5.1371e-17 
 9252.95  4.8666e-17 
 9254.475 4.391e-17  
 9256.0   4.4311e-17 
 9257.525 4.4077e-17 
 9259.05  4.4121e-17 
 9260.575 4.7582e-17 
 9262.1   4.6658e-17 
 9263.625 4.2187e-17 
 9265.15  4.6193e-17 
 9266.675 4.8831e-17 
 9268.2   4.4539e-17 
 9269.725 4.4086e-17 
 9271.25  4.2648e-17 
 9272.775 4.503e-17  
 9274.3   4.7421e-17 
 9275.825 4.5172e-17 
 9277.35  4.6373e-17 
 9278.875 4.3147e-17 
 9280.4   4.1447e-17 
 9281.925 4.598e-17  
 9283.45  4.4223e-17 
 9284.975 3.8237e-17 
 9286.5   4.0672e-17 
 9288.025 4.4519e-17 
 9289.55  4.3807e-17 
 9291.075 4.5603e-17 
 9292.6   4.4982e-17 
 9294.125 4.0734e-17 
 9295.65  4.4506e-17 
 9297.175 4.3101e-17 
 9298.7   4.3316e-17 
 9300.225 4.7789e-17 
 9301.75  4.7641e-17 
 9303.275 4.3331e-17 
 9304.8   5.641e-17  
 9306.325 5.2639e-17 
 9307.85  3.9883e-17 
 9309.375 5.9871e-17 
 9310.9   4.9959e-17 
 9312.425 5.1543e-17 
 9313.95  4.4394e-17 
 9315.475 4.178e-17  
 9317.0   4.5001e-17 
 9318.525 5.3981e-17 
 9320.05  4.7172e-17 
 9321.575 3.2241e-17 
 9323.1   5.6062e-17 
 9324.625 5.7543e-17 
 9326.15  5.1584e-17 
 9327.675 4.6107e-17 
 9329.2   4.0128e-17 
 9330.725 3.7441e-17 
 9332.25  5.106e-17  
 9333.775 4.8079e-17 
 9335.3   4.5938e-17 
 9336.825 5.4154e-17 
 9338.35  5.1192e-17 
 9339.875 4.7183e-17 
 9341.4   3.2947e-17 
 9342.925 2.6306e-17 
 9344.45  4.0415e-17 
 9345.975 3.7771e-17 
 9347.5   3.4329e-17 
 9349.025 3.6405e-17 
 9350.55  3.6098e-17 
 9352.075 4.0467e-17 
 9353.6   5.4365e-17 
 9355.125 5.648e-17  
 9356.65  4.2516e-17 
 9358.175 4.3212e-17 
 9359.7   4.4696e-17 
 9361.225 3.7177e-17 
 9362.75  4.1476e-17 
 9364.275 4.4931e-17 
 9365.8   3.7697e-17 
 9367.325 2.9997e-17 
 9368.85  1.5928e-17 
 9370.375 4.7343e-17 
 9371.9   8.6745e-17 
 9373.425 8.9066e-17 
 9374.95  6.3144e-17 
 9376.475 3.7314e-17 
 9378.0   2.8771e-17 
 9379.525 2.8821e-17 
 9381.05  3.989e-17  
 9382.575 3.9477e-17 
 9384.1   3.5493e-17 
 9385.625 4.0578e-17 
 9387.15  3.4639e-17 
 9388.675 3.0421e-17 
 9390.2   3.4818e-17 
 9391.725 3.6254e-17 
 9393.25  3.497e-17  
 9394.775 3.3919e-17 
 9396.3   3.093e-17  
 9397.825 3.0744e-17 
 9399.35  3.7321e-17 
 9400.875 3.6865e-17 
 9402.4   3.1831e-17 
 9403.925 3.4576e-17 
 9405.45  3.1871e-17 
 9406.975 2.8425e-17 
 9408.5   2.6502e-17 
 9410.025 2.6534e-17 
 9411.55  3.1586e-17 
 9413.075 3.213e-17  
 9414.6   2.864e-17  
 9416.125 3.1109e-17 
 9417.65  3.3587e-17 
 9419.175 3.5578e-17 
 9420.7   3.1257e-17 
 9422.225 2.8163e-17 
 9423.75  2.4166e-17 
 9425.275 2.4175e-17 
 9426.8   3.0453e-17 
 9428.325 3.2778e-17 
 9429.85  3.1735e-17 
 9431.375 3.0595e-17 
 9432.9   2.8677e-17 
 9434.425 3.5874e-17 
 9435.95  5.1822e-17 
 9437.475 5.2728e-17 
 9439.0   3.5955e-17 
 9440.525 2.2417e-17 
 9442.05  2.5917e-17 
 9443.575 3.701e-17  
 9445.1   3.5188e-17 
 9446.625 2.6681e-17 
 9448.15  2.7753e-17 
 9449.675 3.2035e-17 
 9451.2   3.0516e-17 
 9452.725 2.7749e-17 
 9454.25  2.5698e-17 
 9455.775 2.5348e-17 
 9457.3   3.1804e-17 
 9458.825 2.8703e-17 
 9460.35  2.5539e-17 
 9461.875 2.9853e-17 
 9463.4   2.8871e-17 
 9464.925 2.3849e-17 
 9466.45  2.3272e-17 
 9467.975 2.776e-17  
 9469.5   2.8296e-17 
 9471.025 2.4446e-17 
 9472.55  2.4849e-17 
 9474.075 3.5488e-17 
 9475.6   3.7636e-17 
 9477.125 3.0779e-17 
 9478.65  3.192e-17  
 9480.175 2.9594e-17 
 9481.7   2.4694e-17 
 9483.225 2.6272e-17 
 9484.75  2.7634e-17 
 9486.275 2.7853e-17 
 9487.8   2.5243e-17 
 9489.325 2.3991e-17 
 9490.85  2.2263e-17 
 9492.375 2.1931e-17 
 9493.9   2.6648e-17 
 9495.425 2.6077e-17 
 9496.95  2.8469e-17 
 9498.475 2.2602e-17 
 9500.0   3.2482e-17 
 9501.525 3.7588e-17 
 9503.05  2.8467e-17 
 9504.575 2.3543e-17 
 9506.1   2.7988e-17 
 9507.625 3.0307e-17 
 9509.15  3.1201e-17 
 9510.675 2.9611e-17 
 9512.2   2.9855e-17 
 9513.725 2.899e-17  
 9515.25  2.9634e-17 
 9516.775 2.7881e-17 
 9518.3   2.3644e-17 
 9519.825 2.4301e-17 
 9521.35  2.7365e-17 
 9522.875 2.597e-17  
 9524.4   3.0613e-17 
 9525.925 2.9298e-17 
 9527.45  2.9278e-17 
 9528.975 2.9746e-17 
 9530.5   3.3577e-17 
 9532.025 3.1804e-17 
 9533.55  3.0307e-17 
 9535.075 2.8102e-17 
 9536.6   2.5105e-17 
 9538.125 2.878e-17  
 9539.65  3.0656e-17 
 9541.175 3.0403e-17 
 9542.7   3.1601e-17 
 9544.225 3.4492e-17 
 9545.75  3.4967e-17 
 9547.275 3.3161e-17 
 9548.8   3.2362e-17 
 9550.325 3.1289e-17 
 9551.85  2.7342e-17 
 9553.375 2.6471e-17 
 9554.9   2.5663e-17 
 9556.425 3.1218e-17 
 9557.95  3.8017e-17 
 9559.475 3.4148e-17 
 9561.0   2.5126e-17 
 9562.525 2.1377e-17 
 9564.05  3.1378e-17 
 9565.575 4.2133e-17 
 9567.1   3.3456e-17 
 9568.625 3.0455e-17 
 9570.15  3.1823e-17 
 9571.675 3.1586e-17 
 9573.2   3.2276e-17 
 9574.725 3.1715e-17 
 9576.25  3.0976e-17 
 9577.775 3.5418e-17 
 9579.3   4.136e-17  
 9580.825 4.1139e-17 
 9582.35  3.8065e-17 
 9583.875 3.5848e-17 
 9585.4   3.4469e-17 
 9586.925 3.3177e-17 
 9588.45  3.1773e-17 
 9589.975 3.1841e-17 
 9591.5   3.651e-17  
 9593.025 3.7066e-17 
 9594.55  3.6422e-17 
 9596.075 3.4971e-17 
 9597.6   3.7126e-17 
 9599.125 4.039e-17  
 9600.65  4.0338e-17 
 9602.175 3.6692e-17 
 9603.7   4.0924e-17 
 9605.225 3.9454e-17 
 9606.75  3.4101e-17 
 9608.275 3.6858e-17 
 9609.8   3.4588e-17 
 9611.325 3.5204e-17 
 9612.85  3.7059e-17 
 9614.375 3.0685e-17 
 9615.9   2.9523e-17 
 9617.425 3.3282e-17 
 9618.95  3.4709e-17 
 9620.475 4.1126e-17 
 9622.0   3.8832e-17 
 9623.525 3.5267e-17 
 9625.05  3.8712e-17 
 9626.575 3.7859e-17 
 9628.1   3.8854e-17 
 9629.625 3.7912e-17 
 9631.15  3.9905e-17 
 9632.675 3.8306e-17 
 9634.2   3.7762e-17 
 9635.725 3.6771e-17 
 9637.25  4.2927e-17 
 9638.775 4.2425e-17 
 9640.3   3.7522e-17 
 9641.825 3.5335e-17 
 9643.35  3.8247e-17 
 9644.875 4.4129e-17 
 9646.4   4.3135e-17 
 9647.925 4.1098e-17 
 9649.45  4.0544e-17 
 9650.975 3.7894e-17 
 9652.5   4.0941e-17 
 9654.025 4.1747e-17 
 9655.55  4.0425e-17 
 9657.075 4.3092e-17 
 9658.6   4.4292e-17 
 9660.125 4.3918e-17 
 9661.65  4.4962e-17 
 9663.175 4.4063e-17 
 9664.7   3.9879e-17 
 9666.225 4.1374e-17 
 9667.75  4.9888e-17 
 9669.275 5.0396e-17 
 9670.8   4.8044e-17 
 9672.325 4.6967e-17 
 9673.85  4.2347e-17 
 9675.375 4.2615e-17 
 9676.9   4.661e-17  
 9678.425 4.3589e-17 
 9679.95  4.6904e-17 
 9681.475 4.9993e-17 
 9683.0   4.2402e-17 
 9684.525 3.9786e-17 
 9686.05  4.3112e-17 
 9687.575 4.1406e-17 
 9689.1   4.1901e-17 
 9690.625 4.509e-17  
 9692.15  4.3867e-17 
 9693.675 4.6635e-17 
 9695.2   5.0509e-17 
 9696.725 5.6688e-17 
 9698.25  5.8382e-17 
 9699.775 4.4884e-17 
 9701.3   4.1849e-17 
 9702.825 4.3209e-17 
 9704.35  3.9242e-17 
 9705.875 4.3127e-17 
 9707.4   4.5285e-17 
 9708.925 4.253e-17  
 9710.45  4.3969e-17 
 9711.975 4.0462e-17 
 9713.5   3.4651e-17 
 9715.025 4.3483e-17 
 9716.55  5.6563e-17 
 9718.075 5.3165e-17 
 9719.6   4.6277e-17 
 9721.125 4.1128e-17 
 9722.65  3.914e-17  
 9724.175 4.4614e-17 
 9725.7   4.8777e-17 
 9727.225 4.5419e-17 
 9728.75  4.2109e-17 
 9730.275 4.1195e-17 
 9731.8   4.415e-17  
 9733.325 4.9862e-17 
 9734.85  5.9773e-17 
 9736.375 5.5929e-17 
 9737.9   4.0597e-17 
 9739.425 3.6492e-17 
 9740.95  4.4687e-17 
 9742.475 4.7028e-17 
 9744.0   4.1747e-17 
 9745.525 3.7593e-17 
 9747.05  3.6058e-17 
 9748.575 3.7542e-17 
 9750.1   3.8461e-17 
 9751.625 3.8397e-17 
 9753.15  3.9497e-17 
 9754.675 4.2676e-17 
 9756.2   4.4836e-17 
 9757.725 4.6366e-17 
 9759.25  4.7944e-17 
 9760.775 5.5122e-17 
 9762.3   5.1639e-17 
 9763.825 4.1048e-17 
 9765.35  3.746e-17  
 9766.875 3.7904e-17 
 9768.4   3.5528e-17 
 9769.925 3.5239e-17 
 9771.45  3.6481e-17 
 9772.975 3.7381e-17 
 9774.5   4.1157e-17 
 9776.025 4.0952e-17 
 9777.55  4.0964e-17 
 9779.075 4.291e-17  
 9780.6   4.1536e-17 
 9782.125 3.9748e-17 
 9783.65  4.634e-17  
 9785.175 4.811e-17  
 9786.7   4.431e-17  
 9788.225 4.0303e-17 
 9789.75  3.6093e-17 
 9791.275 3.2434e-17 
 9792.8   3.0767e-17 
 9794.325 3.4983e-17 
 9795.85  3.7157e-17 
 9797.375 3.1935e-17 
 9798.9   2.4198e-17 
 9800.425 2.6928e-17 
 9801.95  3.6785e-17 
 9803.475 4.703e-17  
 9805.0   5.1536e-17 
 9806.525 4.4913e-17 
 9808.05  4.571e-17  
 9809.575 4.8989e-17 
 9811.1   4.4679e-17 
 9812.625 4.0485e-17 
 9814.15  3.9793e-17 
 9815.675 4.3938e-17 
 9817.2   4.3371e-17 
 9818.725 4.4496e-17 
 9820.25  4.3529e-17 
 9821.775 3.6935e-17 
 9823.3   3.8416e-17 
 9824.825 4.3088e-17 
 9826.35  4.3194e-17 
 9827.875 4.2519e-17 
 9829.4   4.269e-17  
 9830.925 4.2264e-17 
 9832.45  4.2586e-17 
 9833.975 4.2598e-17 
 9835.5   4.6824e-17 
 9837.025 4.6639e-17 
 9838.55  4.5594e-17 
 9840.075 4.1446e-17 
 9841.6   3.9659e-17 
 9843.125 4.5948e-17 
 9844.65  5.0098e-17 
 9846.175 4.298e-17  
 9847.7   3.7562e-17 
 9849.225 4.1137e-17 
 9850.75  4.7232e-17 
 9852.275 4.9621e-17 
 9853.8   4.908e-17  
 9855.325 4.716e-17  
 9856.85  4.6694e-17 
 9858.375 4.543e-17  
 9859.9   4.5442e-17 
 9861.425 4.8095e-17 
 9862.95  5.024e-17  
 9864.475 4.4223e-17 
 9866.0   4.1429e-17 
 9867.525 5.7309e-17 
 9869.05  6.7891e-17 
 9870.575 5.2255e-17 
 9872.1   3.9986e-17 
 9873.625 3.8204e-17 
 9875.15  5.0349e-17 
 9876.675 5.3422e-17 
 9878.2   4.5128e-17 
 9879.725 4.3556e-17 
 9881.25  5.1799e-17 
 9882.775 5.513e-17  
 9884.3   5.1506e-17 
 9885.825 5.1134e-17 
 9887.35  4.9635e-17 
 9888.875 4.7853e-17 
 9890.4   5.548e-17  
 9891.925 5.8011e-17 
 9893.45  5.5005e-17 
 9894.975 5.3672e-17 
 9896.5   4.6849e-17 
 9898.025 4.0563e-17 
 9899.55  4.2522e-17 
 9901.075 4.3518e-17 
 9902.6   4.2555e-17 
 9904.125 4.681e-17  
 9905.65  4.8306e-17 
 9907.175 4.5797e-17 
 9908.7   4.6832e-17 
 9910.225 4.9291e-17 
 9911.75  4.7958e-17 
 9913.275 4.5878e-17 
 9914.8   4.3633e-17 
 9916.325 4.234e-17  
 9917.85  4.3859e-17 
 9919.375 4.9749e-17 
 9920.9   4.9492e-17 
 9922.425 4.4872e-17 
 9923.95  4.4087e-17 
 9925.475 4.2108e-17 
 9927.0   4.0792e-17 
 9928.525 3.8695e-17 
 9930.05  3.2821e-17 
 9931.575 3.1529e-17 
 9933.1   3.3839e-17 
 9934.625 3.365e-17  
 9936.15  3.3469e-17 
 9937.675 3.0811e-17 
 9939.2   3.5603e-17 
 9940.725 4.9481e-17 
 9942.25  4.9806e-17 
 9943.775 4.1523e-17 
 9945.3   4.5278e-17 
 9946.825 4.7463e-17 
 9948.35  3.877e-17  
 9949.875 4.0987e-17 
 9951.4   4.1903e-17 
 9952.925 4.4374e-17 
 9954.45  5.3593e-17 
 9955.975 6.4121e-17 
 9957.5   5.7262e-17 
 9959.025 6.0806e-17 
 9960.55  5.0678e-17 
 9962.075 4.1714e-17 
 9963.6   3.5888e-17 
 9965.125 4.1022e-17 
 9966.65  5.381e-17  
 9968.175 7.1329e-17 
 9969.7   7.407e-17  
 9971.225 5.5975e-17 
 9972.75  6.2905e-17 
 9974.275 6.9745e-17 
 9975.8   6.3356e-17 
 9977.325 7.0929e-17 
 9978.85  8.6545e-17 
 9980.375 8.3602e-17 
 9981.9   9.9373e-17 
 9983.425 1.3269e-16 
 9984.95  1.4699e-16 
 9986.475 1.554e-16  
 9988.0   1.5166e-16 
 9989.525 1.6202e-16 
 9991.05  1.8494e-16 
 9992.575 1.9587e-16 
 9994.1   2.1023e-16 
 9995.625 2.5561e-16 
 9997.15  3.3377e-16 
 9998.675 3.7187e-16 
10000.2   4.0901e-16 
